# header:
#   title: Fe0(n,xn) emission spectrum at  1.800000E+01 MeV
#   source: EXFOR
#   user: Arjan Koning
#   date: 2024-01-18
#   format: YANDF-0.1
# exfor:
#   author: Yabuta
#   year: 1986
#   subentry: 22025042
#   X4 reaction: 26-FE-0(N,X)0-NN-1,,DE
#   X4 source: IAEA-NDS C5 file, database version 2023-08-08
#   X4 link: https://nds.iaea.org/EXFOR/22025042
# target:
#   Z: 26
#   A: 0
#   nuclide: Fe0
# reaction:
#   type: (n,xn)
#   ENDF_MF: 5
#   ENDF_MT: 201
#   E-incident [MeV]:  1.800000E+01
# datablock:
#   quantity: emission spectrum
#   columns: 5
#   entries: 96
##     E-out         dE-out           xs             dxs       Normalization
##     [MeV]          [MeV]       [mb/MeV.sr]    [mb/MeV.sr]        []
   4.000000E-01   1.000000E-01   1.220800E-04   7.742600E-06   1.000000E+00
   6.000000E-01   1.000000E-01   7.959700E-04   4.524900E-05   1.000000E+00
   8.000000E-01   1.000000E-01   7.117000E-04   3.930300E-05   1.000000E+00
   1.000000E+00   1.000000E-01   6.151900E-04   3.381600E-05   1.000000E+00
   1.200000E+00   1.000000E-01   6.078500E-04   3.354400E-05   1.000000E+00
   1.400000E+00   1.000000E-01   5.792300E-04   3.194200E-05   1.000000E+00
   1.600000E+00   1.000000E-01   5.345100E-04   2.950200E-05   1.000000E+00
   1.800000E+00   1.000000E-01   4.799300E-04   2.652100E-05   1.000000E+00
   2.000000E+00   1.000000E-01   4.246200E-04   2.352100E-05   1.000000E+00
   2.200000E+00   1.000000E-01   3.728500E-04   2.074300E-05   1.000000E+00
   2.400000E+00   1.000000E-01   3.256000E-04   1.820900E-05   1.000000E+00
   2.600000E+00   1.000000E-01   2.880700E-04   1.609400E-05   1.000000E+00
   2.800000E+00   1.000000E-01   2.700800E-04   1.510900E-05   1.000000E+00
   3.000000E+00   1.000000E-01   2.405100E-04   1.348500E-05   1.000000E+00
   3.200000E+00   1.000000E-01   2.182100E-04   1.228500E-05   1.000000E+00
   3.400000E+00   1.000000E-01   1.921900E-04   1.085500E-05   1.000000E+00
   3.600000E+00   1.000000E-01   1.707100E-04   9.670000E-06   1.000000E+00
   3.800000E+00   1.000000E-01   1.525900E-04   8.702101E-06   1.000000E+00
   4.000000E+00   1.000000E-01   1.398800E-04   8.002200E-06   1.000000E+00
   4.200000E+00   1.000000E-01   1.284000E-04   7.383900E-06   1.000000E+00
   4.400000E+00   1.000000E-01   1.211400E-04   7.028800E-06   1.000000E+00
   4.600000E+00   1.000000E-01   1.123600E-04   6.572100E-06   1.000000E+00
   4.800000E+00   1.000000E-01   1.068700E-04   6.276500E-06   1.000000E+00
   5.000000E+00   1.000000E-01   9.686700E-05   5.748100E-06   1.000000E+00
   5.200000E+00   1.000000E-01   8.726300E-05   5.258800E-06   1.000000E+00
   5.400000E+00   1.000000E-01   8.023600E-05   4.930500E-06   1.000000E+00
   5.600000E+00   1.000000E-01   7.311200E-05   4.585400E-06   1.000000E+00
   5.800000E+00   1.000000E-01   7.177900E-05   4.511400E-06   1.000000E+00
   6.000000E+00   1.000000E-01   6.305500E-05   4.072800E-06   1.000000E+00
   6.200000E+00   1.000000E-01   6.741800E-05   4.378900E-06   1.000000E+00
   6.400000E+00   1.000000E-01   6.440200E-05   4.269400E-06   1.000000E+00
   6.600000E+00   1.000000E-01   6.080100E-05   4.190200E-06   1.000000E+00
   6.800000E+00   1.000000E-01   5.953800E-05   4.190900E-06   1.000000E+00
   7.000000E+00   1.000000E-01   5.543500E-05   3.990100E-06   1.000000E+00
   7.200000E+00   1.000000E-01   5.171800E-05   3.771400E-06   1.000000E+00
   7.400000E+00   1.000000E-01   4.120800E-05   3.254600E-06   1.000000E+00
   7.600000E+00   1.000000E-01   4.094000E-05   3.219400E-06   1.000000E+00
   7.800000E+00   1.000000E-01   3.291500E-05   2.892100E-06   1.000000E+00
   8.000000E+00   1.000005E-01   3.443100E-05   3.005100E-06   1.000000E+00
   8.200000E+00   1.000000E-01   3.938300E-05   3.197400E-06   1.000000E+00
   8.400000E+00   1.000000E-01   3.708500E-05   3.040700E-06   1.000000E+00
   8.600000E+00   1.000000E-01   3.510900E-05   2.995300E-06   1.000000E+00
   8.800000E+00   1.000000E-01   3.209300E-05   2.885800E-06   1.000000E+00
   9.000000E+00   1.000000E-01   3.567300E-05   3.017100E-06   1.000000E+00
   9.200000E+00   1.000000E-01   2.992200E-05   2.822700E-06   1.000000E+00
   9.400000E+00   1.000000E-01   2.806500E-05   2.738900E-06   1.000000E+00
   9.600000E+00   1.000000E-01   2.773700E-05   2.695500E-06   1.000000E+00
   9.800000E+00   1.000000E-01   2.912600E-05   2.767100E-06   1.000000E+00
   1.000000E+01   1.000000E-01   3.144800E-05   2.877100E-06   1.000000E+00
   1.020000E+01   1.000000E-01   3.108400E-05   2.794700E-06   1.000000E+00
   1.040000E+01   1.000000E-01   2.449700E-05   2.643200E-06   1.000000E+00
   1.060000E+01   1.000000E-01   3.020700E-05   2.776000E-06   1.000000E+00
   1.080000E+01   1.000000E-01   2.887200E-05   2.729300E-06   1.000000E+00
   1.100000E+01   1.000000E-01   3.057700E-05   2.777900E-06   1.000000E+00
   1.120000E+01   1.000000E-01   2.764500E-05   2.701800E-06   1.000000E+00
   1.140000E+01   1.000000E-01   2.414300E-05   2.610500E-06   1.000000E+00
   1.160000E+01   1.000000E-01   2.791100E-05   2.687700E-06   1.000000E+00
   1.180000E+01   1.000000E-01   2.989900E-05   2.809800E-06   1.000000E+00
   1.200000E+01   1.000000E-01   3.039800E-05   2.794600E-06   1.000000E+00
   1.220000E+01   1.000000E-01   2.740600E-05   2.657600E-06   1.000000E+00
   1.240000E+01   1.000000E-01   2.849000E-05   2.680500E-06   1.000000E+00
   1.260000E+01   1.000000E-01   2.894300E-05   2.660300E-06   1.000000E+00
   1.280000E+01   1.000000E-01   3.290100E-05   2.778900E-06   1.000000E+00
   1.300000E+01   1.000000E-01   3.069900E-05   2.739700E-06   1.000000E+00
   1.320000E+01   1.000000E-01   2.622200E-05   2.575600E-06   1.000000E+00
   1.340000E+01   1.000000E-01   2.957600E-05   2.670600E-06   1.000000E+00
   1.360000E+01   1.000000E-01   2.611000E-05   2.567500E-06   1.000000E+00
   1.380000E+01   1.000000E-01   1.929700E-05   2.355300E-06   1.000000E+00
   1.400000E+01   1.000000E-01   2.133700E-05   2.365100E-06   1.000000E+00
   1.420000E+01   1.000000E-01   2.151500E-05   2.229000E-06   1.000000E+00
   1.440000E+01   1.000000E-01   2.439700E-05   2.673500E-06   1.000000E+00
   1.460000E+01   1.000000E-01   2.117400E-05   2.667500E-06   1.000000E+00
   1.480000E+01   1.000000E-01   2.292100E-05   2.587900E-06   1.000000E+00
   1.500000E+01   1.000000E-01   1.938900E-05   2.627700E-06   1.000000E+00
   1.520000E+01   1.000000E-01   2.653400E-05   3.465300E-06   1.000000E+00
   1.540000E+01   1.000000E-01   3.583200E-05   4.067300E-06   1.000000E+00
   1.560000E+01   1.000000E-01   4.557600E-05   4.511400E-06   1.000000E+00
   1.580000E+01   1.000000E-01   5.714400E-05   4.990000E-06   1.000000E+00
   1.600000E+01   1.000000E-01   7.286400E-05   5.619100E-06   1.000000E+00
   1.620000E+01   9.999900E-02   9.556700E-05   6.637800E-06   1.000000E+00
   1.640000E+01   1.000000E-01   1.182800E-04   7.661800E-06   1.000000E+00
   1.660000E+01   1.000010E-01   1.374900E-04   8.485600E-06   1.000000E+00
   1.680000E+01   1.000000E-01   1.604100E-04   9.555900E-06   1.000000E+00
   1.700000E+01   1.000000E-01   1.656700E-04   9.747800E-06   1.000000E+00
   1.720000E+01   1.000000E-01   1.563300E-04   9.166800E-06   1.000000E+00
   1.740000E+01   1.000000E-01   1.437200E-04   8.450000E-06   1.000000E+00
   1.760000E+01   1.000000E-01   1.206400E-04   7.175500E-06   1.000000E+00
   1.780000E+01   1.000000E-01   9.675200E-05   5.893000E-06   1.000000E+00
   1.800000E+01   1.000000E-01   7.658100E-05   4.842800E-06   1.000000E+00
   1.820000E+01   1.000000E-01   5.558100E-05   3.747400E-06   1.000000E+00
   1.840000E+01   1.000000E-01   3.762500E-05   2.852500E-06   1.000000E+00
   1.860000E+01   1.000000E-01   2.483600E-05   2.299900E-06   1.000000E+00
   1.880000E+01   1.000000E-01   1.636500E-05   2.008600E-06   1.000000E+00
   1.900000E+01   1.000000E-01   1.512700E-05   1.810000E-06   1.000000E+00
   1.920000E+01   1.000000E-01   1.311700E-05   1.813500E-06   1.000000E+00
   1.940000E+01   1.000000E-01   1.276000E-05   1.760500E-06   1.000000E+00
# reference:
#   author: N.Yabuta, M.Baba, T.Kikuchi, M.Ishikawa, N.Hirakawa
#   title: Measurements of double-differential neutron emission  cross sections for Al, Cr, Fe and Ni
#   journal: Prog: Japanese report to the I.N.D.C., No.108, p.93 (1986)
