# header:
#   title: Yb170(n,res) resonance parameter
#   source: EXFOR
#   user: Arjan Koning
#   date: 2024-01-18
#   format: YANDF-0.1
# exfor:
#   author: Liou
#   year: 1973
#   subentry: 100810051
#   X4 reaction: 70-YB-170(N,0),,EN
#   X4 source: IAEA-NDS C5 file, database version 2023-08-08
#   X4 link: https://nds.iaea.org/EXFOR/100810051
# target:
#   Z: 70
#   A: 170
#   nuclide: Yb170
# reaction:
#   type: (n,res)
#   ENDF_MF: 402
#   ENDF_MT: 151
# datablock:
#   quantity: resonance parameter
#   columns: 5
#   entries: 19
##       E             dE             par           dpar       Normalization
##     [eV]           [eV]            []             []             []
   3.993000E-05   6.000000E-08   3.993000E+01   6.000000E-02   1.000000E+00
   6.657000E-05   6.000000E-08   6.657000E+01   6.000000E-02   1.000000E+00
   7.291001E-05   7.000000E-08   7.291000E+01   7.000000E-02   1.000000E+00
   9.531000E-05   1.000000E-07   9.531000E+01   1.000000E-01   1.000000E+00
   2.128100E-04   3.400000E-07   2.128100E+02   3.400000E-01   1.000000E+00
   2.699700E-04   2.400000E-07   2.699700E+02   2.400000E-01   1.000000E+00
   2.863500E-04   2.700000E-07   2.863500E+02   2.700000E-01   1.000000E+00
   3.580000E-04   3.800000E-07   3.580000E+02   3.800000E-01   1.000000E+00
   4.478800E-04   5.200000E-07   4.478800E+02   5.200000E-01   1.000000E+00
   4.518000E-04   5.300000E-07   4.518000E+02   5.300000E-01   1.000000E+00
   6.120800E-04   8.300000E-07   6.120800E+02   8.300000E-01   1.000000E+00
   7.617900E-04   1.150000E-06   7.617900E+02   1.150000E+00   1.000000E+00
   8.087500E-04   1.260000E-06   8.087500E+02   1.260000E+00   1.000000E+00
   8.689100E-04   7.000000E-07   8.689100E+02   7.000000E-01   1.000000E+00
   9.526000E-04   8.000000E-07   9.526000E+02   8.000000E-01   1.000000E+00
   9.784300E-04   8.400000E-07   9.784300E+02   8.400000E-01   1.000000E+00
   1.037100E-03   1.000000E-06   1.037100E+03   1.000000E+00   1.000000E+00
   1.296200E-03   1.200000E-06   1.296200E+03   1.200000E+00   1.000000E+00
   1.328000E-03   1.400000E-06   1.328000E+03   1.400000E+00   1.000000E+00
# reference:
#   author: H.I.LIOU,H.S.CAMARDA,G.HACKEN,F.RAHN,J.RAINWATER, M.SLAGOWITZ,S.WYNCHANK
#   title: Neutron resonance spectroscopy. XI. The separated  isotopes of Yb.
#   journal: Jour: Physical Review, Part C, Nuclear Physics, Vol.7, p.823 (1973)
