# header:
#   title: Nb93(n,xn) emission spectrum at  7.000000E+00 MeV
#   source: EXFOR
#   user: Arjan Koning
#   date: 2024-01-18
#   format: YANDF-0.1
# exfor:
#   author: Schmidt
#   year: 1987
#   subentry: 32001031
#   X4 reaction: 41-NB-93(N,X)0-NN-1,,DE
#   X4 source: IAEA-NDS C5 file, database version 2023-08-08
#   X4 link: https://nds.iaea.org/EXFOR/32001031
# target:
#   Z: 41
#   A: 93
#   nuclide: Nb93
# reaction:
#   type: (n,xn)
#   ENDF_MF: 5
#   ENDF_MT: 201
#   E-incident [MeV]:  7.000000E+00
# datablock:
#   quantity: emission spectrum
#   columns: 5
#   entries: 20
##     E-out         dE-out           xs             dxs       Normalization
##     [MeV]          [MeV]       [mb/MeV.sr]    [mb/MeV.sr]        []
   2.000000E+00   0.000000E+00   3.890000E-04   3.200000E-05   1.000000E+00
   2.250000E+00   0.000000E+00   3.410000E-04   2.600000E-05   1.000000E+00
   2.500000E+00   0.000000E+00   2.940000E-04   1.800000E-05   1.000000E+00
   2.750000E+00   0.000000E+00   2.470000E-04   1.400000E-05   1.000000E+00
   3.000000E+00   0.000000E+00   2.040000E-04   1.200000E-05   1.000000E+00
   3.250000E+00   0.000000E+00   1.730000E-04   1.100000E-05   1.000000E+00
   3.500000E+00   0.000000E+00   1.500000E-04   9.800000E-06   1.000000E+00
   3.750000E+00   0.000000E+00   1.273000E-04   9.200000E-06   1.000000E+00
   4.000000E+00   0.000000E+00   1.142000E-04   8.500000E-06   1.000000E+00
   4.250000E+00   0.000000E+00   1.019000E-04   8.300000E-06   1.000000E+00
   4.500000E+00   0.000000E+00   8.970000E-05   8.399999E-06   1.000000E+00
   4.750000E+00   0.000000E+00   7.980000E-05   8.399999E-06   1.000000E+00
   5.000000E+00   0.000000E+00   7.700000E-05   8.300000E-06   1.000000E+00
   5.250000E+00   0.000000E+00   7.100000E-05   8.399999E-06   1.000000E+00
   5.500000E+00   0.000000E+00   7.000000E-05   8.600000E-06   1.000000E+00
   5.750000E+00   0.000000E+00   7.640000E-05   8.999999E-06   1.000000E+00
   6.000000E+00   0.000000E+00   8.699999E-05   9.200000E-06   1.000000E+00
   6.250000E+00   0.000000E+00   9.730001E-05   9.900000E-06   1.000000E+00
   6.500000E+00   0.000000E+00   1.100000E-04   1.200000E-05   1.000000E+00
   6.750000E+00   0.000000E+00   1.210000E-04   1.400000E-05   1.000000E+00
# reference:
#   author: D.Schmidt, D.Seeliger, G.N.Lovchikova, A.M.Trufanov
#   title: Measurement and status of neutron scattering on 6Li and 7Li between 6 and 14 MeV
#   journal: Jour: Nuclear Science and Engineering, Vol.96, p.159 (1987)
