# header:
#   title: Ni0(n,xn) emission spectrum at  1.410000E+01 MeV
#   source: EXFOR
#   user: Arjan Koning
#   date: 2024-01-18
#   format: YANDF-0.1
# exfor:
#   author: Matsuyama
#   year: 1993
#   subentry: 22352011
#   X4 reaction: 28-NI-0(N,X)0-NN-1,,DE
#   X4 source: IAEA-NDS C5 file, database version 2023-08-08
#   X4 link: https://nds.iaea.org/EXFOR/22352011
# target:
#   Z: 28
#   A: 0
#   nuclide: Ni0
# reaction:
#   type: (n,xn)
#   ENDF_MF: 5
#   ENDF_MT: 201
#   E-incident [MeV]:  1.410000E+01
# datablock:
#   quantity: emission spectrum
#   columns: 5
#   entries: 74
##     E-out         dE-out           xs             dxs       Normalization
##     [MeV]          [MeV]       [mb/MeV.sr]    [mb/MeV.sr]        []
   8.000000E-01   1.000000E-01   3.399300E-04   2.160300E-05   1.000000E+00
   1.000000E+00   1.000000E-01   3.637200E-04   1.941500E-05   1.000000E+00
   1.200000E+00   1.000000E-01   3.189000E-04   1.631100E-05   1.000000E+00
   1.400000E+00   1.000000E-01   2.806400E-04   1.526900E-05   1.000000E+00
   1.600000E+00   1.000000E-01   2.572800E-04   1.347800E-05   1.000000E+00
   1.800000E+00   1.000000E-01   2.340000E-04   1.179600E-05   1.000000E+00
   2.000000E+00   1.000000E-01   2.137800E-04   1.087400E-05   1.000000E+00
   2.200000E+00   1.000000E-01   1.956200E-04   1.035000E-05   1.000000E+00
   2.400000E+00   1.000000E-01   1.752200E-04   9.241100E-06   1.000000E+00
   2.600000E+00   1.000000E-01   1.567900E-04   8.929200E-06   1.000000E+00
   2.800000E+00   1.000000E-01   1.449100E-04   7.449200E-06   1.000000E+00
   3.000000E+00   1.000000E-01   1.308000E-04   7.060900E-06   1.000000E+00
   3.200000E+00   1.000000E-01   1.179300E-04   6.579600E-06   1.000000E+00
   3.400000E+00   1.000000E-01   1.075100E-04   5.824900E-06   1.000000E+00
   3.600000E+00   1.000000E-01   9.906000E-05   5.071800E-06   1.000000E+00
   3.800000E+00   1.000000E-01   8.804300E-05   5.212500E-06   1.000000E+00
   4.000000E+00   1.000000E-01   8.057100E-05   4.565500E-06   1.000000E+00
   4.200000E+00   1.000000E-01   7.243400E-05   4.726700E-06   1.000000E+00
   4.400000E+00   1.000000E-01   6.960700E-05   3.698000E-06   1.000000E+00
   4.600000E+00   1.000000E-01   6.740000E-05   3.880900E-06   1.000000E+00
   4.800000E+00   1.000000E-01   6.364300E-05   3.831900E-06   1.000000E+00
   5.000000E+00   1.000000E-01   5.888700E-05   2.982800E-06   1.000000E+00
   5.200000E+00   1.000000E-01   5.031900E-05   3.069000E-06   1.000000E+00
   5.400000E+00   1.000000E-01   4.780000E-05   2.740800E-06   1.000000E+00
   5.600000E+00   1.000000E-01   4.470700E-05   3.031400E-06   1.000000E+00
   5.800000E+00   1.000000E-01   4.370700E-05   2.350500E-06   1.000000E+00
   6.000000E+00   1.000000E-01   3.997500E-05   2.344600E-06   1.000000E+00
   6.200000E+00   1.000000E-01   3.713700E-05   2.949700E-06   1.000000E+00
   6.400000E+00   1.000000E-01   4.001000E-05   2.368200E-06   1.000000E+00
   6.600000E+00   1.000000E-01   3.783100E-05   2.780300E-06   1.000000E+00
   6.800000E+00   1.000000E-01   3.763000E-05   2.288600E-06   1.000000E+00
   7.000000E+00   1.000000E-01   3.495500E-05   1.948000E-06   1.000000E+00
   7.200000E+00   1.000000E-01   3.056100E-05   2.745800E-06   1.000000E+00
   7.400000E+00   1.000000E-01   2.376600E-05   2.199200E-06   1.000000E+00
   7.600000E+00   1.000000E-01   2.703900E-05   1.590800E-06   1.000000E+00
   7.800000E+00   1.000000E-01   2.725600E-05   1.733000E-06   1.000000E+00
   8.000000E+00   1.000005E-01   2.086400E-05   1.319200E-06   1.000000E+00
   8.200000E+00   1.000000E-01   2.065900E-05   1.706200E-06   1.000000E+00
   8.400000E+00   1.000000E-01   1.975200E-05   1.254200E-06   1.000000E+00
   8.600000E+00   1.000000E-01   2.134800E-05   1.719200E-06   1.000000E+00
   8.800000E+00   1.000000E-01   2.245300E-05   2.346300E-06   1.000000E+00
   9.000000E+00   1.000000E-01   2.674300E-05   2.013300E-06   1.000000E+00
   9.200000E+00   1.000000E-01   2.841000E-05   2.135600E-06   1.000000E+00
   9.400000E+00   1.000000E-01   2.788100E-05   2.642900E-06   1.000000E+00
   9.600000E+00   1.000000E-01   2.321800E-05   1.885500E-06   1.000000E+00
   9.800000E+00   1.000000E-01   1.974700E-05   1.853000E-06   1.000000E+00
   1.000000E+01   1.000000E-01   1.867100E-05   1.985600E-06   1.000000E+00
   1.020000E+01   1.000000E-01   1.944100E-05   1.886700E-06   1.000000E+00
   1.040000E+01   1.000000E-01   1.756500E-05   1.749500E-06   1.000000E+00
   1.060000E+01   1.000000E-01   1.489600E-05   1.697700E-06   1.000000E+00
   1.080000E+01   1.000000E-01   1.204700E-05   1.097700E-06   1.000000E+00
   1.100000E+01   1.000000E-01   1.228000E-05   9.754500E-07   1.000000E+00
   1.120000E+01   1.000000E-01   1.173300E-05   1.055100E-06   1.000000E+00
   1.140000E+01   1.000000E-01   1.154500E-05   2.043200E-06   1.000000E+00
   1.160000E+01   1.000000E-01   1.340600E-05   1.412600E-06   1.000000E+00
   1.180000E+01   1.000000E-01   2.499400E-05   2.525000E-06   1.000000E+00
   1.200000E+01   1.000000E-01   4.035600E-05   4.484000E-06   1.000000E+00
   1.220000E+01   1.000000E-01   5.434800E-05   5.399300E-06   1.000000E+00
   1.240000E+01   1.000000E-01   5.197300E-05   7.144700E-06   1.000000E+00
   1.260000E+01   1.000000E-01   4.522300E-05   9.325500E-06   1.000000E+00
   1.280000E+01   1.000000E-01   4.442700E-05   1.377600E-05   1.000000E+00
   1.300000E+01   1.000000E-01   5.893300E-05   2.052900E-05   1.000000E+00
   1.320000E+01   1.000000E-01   9.692000E-05   3.074700E-05   1.000000E+00
   1.340000E+01   1.000000E-01   1.451800E-04   4.115100E-05   1.000000E+00
   1.360000E+01   1.000000E-01   1.858400E-04   4.572500E-05   1.000000E+00
   1.380000E+01   1.000000E-01   1.706200E-04   3.993900E-05   1.000000E+00
   1.400000E+01   1.000000E-01   1.264900E-04   2.998200E-05   1.000000E+00
   1.420000E+01   1.000000E-01   7.467200E-05   1.871500E-05   1.000000E+00
   1.440000E+01   1.000000E-01   3.491900E-05   1.060900E-05   1.000000E+00
   1.460000E+01   1.000000E-01   1.165700E-05   6.898900E-06   1.000000E+00
   1.490000E+01   2.000000E-01   3.162000E-06   4.697800E-06   1.000000E+00
   1.520000E+01   1.000000E-01   1.370200E-06   1.541400E-06   1.000000E+00
   1.540000E+01   1.000000E-01   1.974400E-05   1.115800E-06   1.000000E+00
   1.560000E+01   1.000000E-01   1.495200E-06   1.162300E-06   1.000000E+00
# reference:
#   author: S.Matsuyama,T.Okubo,M.Baba,T.Ito,T.Akiyama,N.Ito,  N.Hirakawa
#   title: Measurement of double-differential neutron emission  cross sections of Mo, Ta and W
#   journal: Conf: JAERI-M Reports, No.93-046, p.345 (1993)
