# header:
#   title: Ni0(n,xn) emission spectrum at  1.800000E+01 MeV
#   source: EXFOR
#   user: Arjan Koning
#   date: 2024-01-18
#   format: YANDF-0.1
# exfor:
#   author: Yabuta
#   year: 1986
#   subentry: 22025062
#   X4 reaction: 28-NI-0(N,X)0-NN-1,,DE
#   X4 source: IAEA-NDS C5 file, database version 2023-08-08
#   X4 link: https://nds.iaea.org/EXFOR/22025062
# target:
#   Z: 28
#   A: 0
#   nuclide: Ni0
# reaction:
#   type: (n,xn)
#   ENDF_MF: 5
#   ENDF_MT: 201
#   E-incident [MeV]:  1.800000E+01
# datablock:
#   quantity: emission spectrum
#   columns: 5
#   entries: 96
##     E-out         dE-out           xs             dxs       Normalization
##     [MeV]          [MeV]       [mb/MeV.sr]    [mb/MeV.sr]        []
   4.000000E-01   1.000000E-01   9.678300E-05   6.187400E-06   1.000000E+00
   6.000000E-01   1.000000E-01   5.273000E-04   3.072100E-05   1.000000E+00
   8.000000E-01   1.000000E-01   4.276100E-04   2.444200E-05   1.000000E+00
   1.000000E+00   1.000000E-01   3.849500E-04   2.187100E-05   1.000000E+00
   1.200000E+00   1.000000E-01   3.782700E-04   2.155100E-05   1.000000E+00
   1.400000E+00   1.000000E-01   3.489000E-04   1.985300E-05   1.000000E+00
   1.600000E+00   1.000000E-01   3.197700E-04   1.827700E-05   1.000000E+00
   1.800000E+00   1.000000E-01   2.809400E-04   1.606200E-05   1.000000E+00
   2.000000E+00   1.000000E-01   2.489200E-04   1.424300E-05   1.000000E+00
   2.200000E+00   1.000000E-01   2.183300E-04   1.252500E-05   1.000000E+00
   2.400000E+00   1.000000E-01   1.903200E-04   1.099500E-05   1.000000E+00
   2.600000E+00   1.000000E-01   1.690500E-04   9.782600E-06   1.000000E+00
   2.800000E+00   1.000000E-01   1.561400E-04   9.085600E-06   1.000000E+00
   3.000000E+00   1.000000E-01   1.381800E-04   8.083301E-06   1.000000E+00
   3.200000E+00   1.000000E-01   1.257400E-04   7.403900E-06   1.000000E+00
   3.400000E+00   1.000000E-01   1.094200E-04   6.494500E-06   1.000000E+00
   3.600000E+00   1.000000E-01   9.433500E-05   5.643300E-06   1.000000E+00
   3.800000E+00   1.000000E-01   8.628700E-05   5.224400E-06   1.000000E+00
   4.000000E+00   1.000000E-01   8.188600E-05   4.981900E-06   1.000000E+00
   4.200000E+00   1.000000E-01   7.665400E-05   4.692500E-06   1.000000E+00
   4.400000E+00   1.000000E-01   7.333000E-05   4.541400E-06   1.000000E+00
   4.600000E+00   1.000000E-01   6.902600E-05   4.318200E-06   1.000000E+00
   4.800000E+00   1.000000E-01   6.270900E-05   3.931200E-06   1.000000E+00
   5.000000E+00   1.000000E-01   6.104600E-05   3.875800E-06   1.000000E+00
   5.200000E+00   1.000000E-01   5.565500E-05   3.637600E-06   1.000000E+00
   5.400000E+00   1.000000E-01   5.223500E-05   3.483300E-06   1.000000E+00
   5.600000E+00   1.000000E-01   4.908700E-05   3.335300E-06   1.000000E+00
   5.800000E+00   1.000000E-01   5.199500E-05   3.541900E-06   1.000000E+00
   6.000000E+00   1.000000E-01   4.669400E-05   3.267000E-06   1.000000E+00
   6.200000E+00   1.000000E-01   4.458200E-05   3.159800E-06   1.000000E+00
   6.400000E+00   1.000000E-01   4.174900E-05   3.072500E-06   1.000000E+00
   6.600000E+00   1.000000E-01   3.867700E-05   2.990000E-06   1.000000E+00
   6.800000E+00   1.000000E-01   3.797400E-05   2.995300E-06   1.000000E+00
   7.000000E+00   1.000000E-01   3.198600E-05   2.646600E-06   1.000000E+00
   7.200000E+00   1.000000E-01   2.947200E-05   2.491900E-06   1.000000E+00
   7.400000E+00   1.000000E-01   2.558900E-05   2.339900E-06   1.000000E+00
   7.600000E+00   1.000000E-01   2.437000E-05   2.263900E-06   1.000000E+00
   7.800000E+00   1.000000E-01   2.887900E-05   2.498300E-06   1.000000E+00
   8.000000E+00   1.000005E-01   1.968600E-05   2.173700E-06   1.000000E+00
   8.200000E+00   1.000000E-01   2.236100E-05   2.232000E-06   1.000000E+00
   8.400000E+00   1.000000E-01   2.440700E-05   2.318500E-06   1.000000E+00
   8.600000E+00   1.000000E-01   2.084800E-05   2.186100E-06   1.000000E+00
   8.800000E+00   1.000000E-01   1.772200E-05   2.073100E-06   1.000000E+00
   9.000000E+00   1.000000E-01   1.739500E-05   2.043000E-06   1.000000E+00
   9.200000E+00   1.000000E-01   1.811000E-05   2.111500E-06   1.000000E+00
   9.400000E+00   1.000000E-01   2.086100E-05   2.192100E-06   1.000000E+00
   9.600000E+00   1.000000E-01   1.910100E-05   2.051700E-06   1.000000E+00
   9.800000E+00   1.000000E-01   1.595800E-05   2.001300E-06   1.000000E+00
   1.000000E+01   1.000000E-01   2.174300E-05   2.200400E-06   1.000000E+00
   1.020000E+01   1.000000E-01   2.404100E-05   2.253500E-06   1.000000E+00
   1.040000E+01   1.000000E-01   2.206600E-05   2.249500E-06   1.000000E+00
   1.060000E+01   1.000000E-01   2.090000E-05   2.188600E-06   1.000000E+00
   1.080000E+01   1.000000E-01   2.295900E-05   2.274700E-06   1.000000E+00
   1.100000E+01   1.000000E-01   2.070000E-05   2.211500E-06   1.000000E+00
   1.120000E+01   1.000000E-01   2.272100E-05   2.246600E-06   1.000000E+00
   1.140000E+01   1.000000E-01   1.912000E-05   2.153600E-06   1.000000E+00
   1.160000E+01   1.000000E-01   1.925100E-05   2.150700E-06   1.000000E+00
   1.180000E+01   1.000000E-01   1.896100E-05   2.151800E-06   1.000000E+00
   1.200000E+01   1.000000E-01   2.308300E-05   2.264200E-06   1.000000E+00
   1.220000E+01   1.000000E-01   2.582400E-05   2.362500E-06   1.000000E+00
   1.240000E+01   1.000000E-01   2.474800E-05   2.290600E-06   1.000000E+00
   1.260000E+01   1.000000E-01   2.453600E-05   2.261300E-06   1.000000E+00
   1.280000E+01   1.000000E-01   2.420800E-05   2.248900E-06   1.000000E+00
   1.300000E+01   1.000000E-01   2.271100E-05   2.191800E-06   1.000000E+00
   1.320000E+01   1.000000E-01   2.268100E-05   2.182900E-06   1.000000E+00
   1.340000E+01   1.000000E-01   2.332900E-05   2.210000E-06   1.000000E+00
   1.360000E+01   1.000000E-01   2.229800E-05   2.172000E-06   1.000000E+00
   1.380000E+01   1.000000E-01   2.028900E-05   2.120200E-06   1.000000E+00
   1.400000E+01   1.000000E-01   2.078600E-05   2.153300E-06   1.000000E+00
   1.420000E+01   1.000000E-01   2.033200E-05   2.114800E-06   1.000000E+00
   1.440000E+01   1.000000E-01   2.060400E-05   2.139300E-06   1.000000E+00
   1.460000E+01   1.000000E-01   2.000600E-05   2.187800E-06   1.000000E+00
   1.480000E+01   1.000000E-01   2.188200E-05   2.306900E-06   1.000000E+00
   1.500000E+01   1.000000E-01   2.874400E-05   2.688300E-06   1.000000E+00
   1.520000E+01   1.000000E-01   3.063400E-05   2.889500E-06   1.000000E+00
   1.540000E+01   1.000000E-01   3.220300E-05   3.071900E-06   1.000000E+00
   1.560000E+01   1.000000E-01   3.778300E-05   3.459100E-06   1.000000E+00
   1.580000E+01   1.000000E-01   4.645900E-05   3.945000E-06   1.000000E+00
   1.600000E+01   1.000000E-01   6.171600E-05   4.624800E-06   1.000000E+00
   1.620000E+01   9.999900E-02   7.167801E-05   5.134300E-06   1.000000E+00
   1.640000E+01   1.000000E-01   8.234500E-05   5.614700E-06   1.000000E+00
   1.660000E+01   1.000010E-01   9.036600E-05   5.940100E-06   1.000000E+00
   1.680000E+01   1.000000E-01   9.830300E-05   6.295700E-06   1.000000E+00
   1.700000E+01   1.000000E-01   1.061100E-04   6.637200E-06   1.000000E+00
   1.720000E+01   1.000000E-01   1.070200E-04   6.617800E-06   1.000000E+00
   1.740000E+01   1.000000E-01   9.557300E-05   5.960400E-06   1.000000E+00
   1.760000E+01   1.000000E-01   8.362001E-05   5.286400E-06   1.000000E+00
   1.780000E+01   1.000000E-01   7.128800E-05   4.591200E-06   1.000000E+00
   1.800000E+01   1.000000E-01   5.540900E-05   3.725000E-06   1.000000E+00
   1.820000E+01   1.000000E-01   3.930400E-05   2.851200E-06   1.000000E+00
   1.840000E+01   1.000000E-01   2.895600E-05   2.266100E-06   1.000000E+00
   1.860000E+01   1.000000E-01   2.075000E-05   1.857300E-06   1.000000E+00
   1.880000E+01   1.000000E-01   1.613700E-05   1.547000E-06   1.000000E+00
   1.900000E+01   1.000000E-01   1.133600E-05   1.104200E-06   1.000000E+00
   1.920000E+01   1.000000E-01   7.895001E-06   9.291500E-07   1.000000E+00
   1.940000E+01   1.000000E-01   6.938100E-06   1.051900E-06   1.000000E+00
# reference:
#   author: N.Yabuta, M.Baba, T.Kikuchi, M.Ishikawa, N.Hirakawa
#   title: Measurements of double-differential neutron emission  cross sections for Al, Cr, Fe and Ni
#   journal: Prog: Japanese report to the I.N.D.C., No.108, p.93 (1986)
