# header:
#   title: Rb85(n,res) resonance parameter
#   source: EXFOR
#   user: Arjan Koning
#   date: 2024-01-18
#   format: YANDF-0.1
# exfor:
#   author: Ohkubo
#   year: 1980
#   subentry: 217470022
#   X4 reaction: 37-RB-85(N,EL),,WID/RED,,G
#   X4 source: IAEA-NDS C5 file, database version 2023-08-08
#   X4 link: https://nds.iaea.org/EXFOR/217470022
# target:
#   Z: 37
#   A: 85
#   nuclide: Rb85
# reaction:
#   type: (n,res)
#   ENDF_MF: 402
#   ENDF_MT: 151
# datablock:
#   quantity: resonance parameter
#   columns: 5
#   entries: 100
##       E             dE             par           dpar       Normalization
##     [eV]           [eV]            []             []             []
   1.755000E-04   2.000000E-08   4.400000E-05   4.000000E-06   1.000000E+00
   2.230000E-04   3.000000E-08   3.500000E-05   4.000000E-06   1.000000E+00
   2.348000E-04   3.000000E-08   5.100000E-04   5.000000E-05   1.000000E+00
   4.268000E-04   8.000000E-08   8.000000E-05   8.000000E-06   1.000000E+00
   4.606000E-04   9.000000E-08   8.000000E-05   8.000000E-06   1.000000E+00
   4.740000E-04   9.000000E-08   1.100000E-03   6.000000E-05   1.000000E+00
   5.264001E-04   1.000000E-07   3.500000E-02   2.000000E-03   1.000000E+00
   5.426000E-04   1.000000E-07   2.800000E-04   0.000000E+00   1.000000E+00
   5.932000E-04   1.000000E-07   1.500000E-04   0.000000E+00   1.000000E+00
   6.548000E-04   1.000000E-07   5.700000E-03   3.000000E-04   1.000000E+00
   7.995000E-04   2.000000E-07   3.600000E-04   3.000000E-05   1.000000E+00
   1.007900E-03   3.000000E-07   2.100000E-03   1.400000E-04   1.000000E+00
   1.041600E-03   3.000000E-07   1.270000E-02   7.000000E-04   1.000000E+00
   1.203100E-03   3.000000E-07   2.150000E-02   1.500000E-03   1.000000E+00
   1.409000E-03   4.000000E-07   8.300000E-02   4.000000E-03   1.000000E+00
   1.507000E-03   5.000000E-07   1.700000E-03   2.000000E-04   1.000000E+00
   1.670800E-03   6.000000E-07   5.900000E-03   6.000000E-04   1.000000E+00
   1.916000E-03   7.000000E-07   4.400000E-04   4.000000E-05   1.000000E+00
   1.985000E-03   8.000000E-07   1.450000E-02   1.500000E-03   1.000000E+00
   2.083500E-03   8.000000E-07   4.800000E-03   5.000000E-04   1.000000E+00
   2.161000E-03   9.000000E-07   4.400000E-04   4.000000E-05   1.000000E+00
   2.214000E-03   9.000000E-07   3.800000E-04   4.000000E-05   1.000000E+00
   2.293000E-03   1.000000E-06   6.000000E-04   6.000000E-05   1.000000E+00
   2.399500E-03   1.000000E-06   8.000001E-02   4.000000E-03   1.000000E+00
   2.504000E-03   1.100000E-06   4.300000E-03   4.000000E-04   1.000000E+00
   2.584600E-03   1.100000E-06   1.800000E-02   1.500000E-03   1.000000E+00
   2.653000E-03   1.200000E-06   6.500000E-04   5.000000E-05   1.000000E+00
   2.777000E-03   1.300000E-06   8.000000E-04   1.000000E-04   1.000000E+00
   2.917000E-03   1.400000E-06   8.000000E-04   1.000000E-04   1.000000E+00
   2.996000E-03   1.400000E-06   3.200000E-02   3.000000E-03   1.000000E+00
   3.009400E-03   1.500000E-06   1.900000E-02   2.000000E-03   1.000000E+00
   3.211400E-03   1.600000E-06   2.100000E-02   2.000000E-03   1.000000E+00
   3.336500E-03   1.700000E-06   5.800000E-03   6.000000E-04   1.000000E+00
   3.428000E-03   1.800000E-06   1.200000E-03   1.000000E-04   1.000000E+00
   3.550000E-03   1.900000E-06   1.100000E-03   1.000000E-04   1.000000E+00
   3.578000E-03   1.900000E-06   1.200000E-03   1.000000E-04   1.000000E+00
   3.634000E-03   1.900000E-06   7.000000E-04   1.000000E-04   1.000000E+00
   4.022500E-03   2.300000E-06   3.300000E-02   3.000000E-03   1.000000E+00
   4.213600E-03   2.400000E-06   5.200000E-02   4.000000E-03   1.000000E+00
   4.323000E-03   2.500000E-06   5.000000E-04   7.000000E-05   1.000000E+00
   4.373000E-03   2.600000E-06   1.200000E-03   1.000000E-04   1.000000E+00
   4.496000E-03   2.700000E-06   3.000000E-04   8.000000E-05   1.000000E+00
   4.696000E-03   2.900000E-06   1.000000E-03   1.000000E-04   1.000000E+00
   4.879000E-03   3.100000E-06   7.200000E-02   4.000000E-03   1.000000E+00
   5.004000E-03   3.200000E-06   6.000000E-03   7.000000E-04   1.000000E+00
   5.153000E-03   3.300000E-06   1.600000E-02   2.000000E-03   1.000000E+00
   5.176000E-03   3.300000E-06   6.900000E-03   7.000000E-04   1.000000E+00
   5.605000E-03   3.800000E-06   2.770000E-02   2.000000E-03   1.000000E+00
   5.738000E-03   3.900000E-06   6.200000E-03   6.000000E-04   1.000000E+00
   5.878000E-03   4.100000E-06   3.600000E-02   5.000000E-03   1.000000E+00
   6.282000E-03   4.500000E-06   6.900000E-03   7.000000E-04   1.000000E+00
   6.606000E-03   4.800000E-06   9.700000E-03   8.000000E-04   1.000000E+00
   6.701000E-03   5.000000E-06   8.300000E-03   8.000000E-04   1.000000E+00
   6.847000E-03   5.100000E-06   1.000000E-03   1.000000E-04   1.000000E+00
   7.059000E-03   5.400000E-06   1.250000E-02   1.500000E-03   1.000000E+00
   7.177000E-03   5.500000E-06   4.000000E-02   3.000000E-03   1.000000E+00
   7.437000E-03   5.800000E-06   1.000000E-02   1.000000E-03   1.000000E+00
   7.560000E-03   5.900000E-06   3.000000E-03   5.000000E-04   1.000000E+00
   7.657000E-03   6.100000E-06   3.000000E-03   5.000000E-04   1.000000E+00
   7.694000E-03   6.100000E-06   3.000000E-03   5.000000E-04   1.000000E+00
   7.787000E-03   6.200000E-06   2.000000E-03   5.000000E-04   1.000000E+00
   7.895000E-03   6.300000E-06   2.000000E-03   5.000000E-04   1.000000E+00
   7.973000E-03   6.400000E-06   1.700000E-02   1.500000E-03   1.000000E+00
   8.189000E-03   6.700000E-06   4.000000E-03   5.000000E-04   1.000000E+00
   8.330000E-03   6.900000E-06   3.000000E-03   5.000000E-04   1.000000E+00
   8.398000E-03   7.000000E-06   1.800000E-02   2.000000E-03   1.000000E+00
   8.538000E-03   7.100000E-06   2.000000E-03   5.000000E-04   1.000000E+00
   9.155000E-03   7.900000E-06   1.100000E-01   7.000000E-03   1.000000E+00
   9.316000E-03   8.200000E-06   4.000000E-03   7.000000E-04   1.000000E+00
   9.365000E-03   8.200000E-06   2.600000E-02   2.000000E-03   1.000000E+00
   9.788000E-03   8.800001E-06   2.600000E-02   2.000000E-03   1.000000E+00
   1.014300E-02   9.300000E-06   7.300001E-02   4.000000E-03   1.000000E+00
   1.030700E-02   9.500000E-06   6.000000E-03   1.000000E-03   1.000000E+00
   1.083300E-02   1.000000E-05   1.500000E-02   2.000000E-03   1.000000E+00
   1.091300E-02   1.000000E-05   1.500000E-02   2.000000E-03   1.000000E+00
   1.097500E-02   1.000000E-05   4.200000E-02   4.000000E-03   1.000000E+00
   1.164700E-02   1.100000E-05   1.400000E-02   2.000000E-03   1.000000E+00
   1.214500E-02   1.200000E-05   1.700000E-02   2.000000E-03   1.000000E+00
   1.227500E-02   1.200000E-05   6.000000E-03   1.000000E-03   1.000000E+00
   1.238700E-02   1.200000E-05   8.500000E-03   1.000000E-03   1.000000E+00
   1.249500E-02   1.200000E-05   4.400000E-02   4.000000E-03   1.000000E+00
   1.263000E-02   1.200000E-05   8.000000E-03   1.000000E-03   1.000000E+00
   1.280500E-02   1.300000E-05   7.600001E-02   8.000000E-03   1.000000E+00
   1.297300E-02   1.300000E-05   1.600000E-02   1.500000E-03   1.000000E+00
   1.338000E-02   1.400000E-05   6.000000E-03   1.000000E-03   1.000000E+00
   1.343500E-02   1.400000E-05   4.000000E-03   1.000000E-03   1.000000E+00
   1.356500E-02   1.400000E-05   4.500000E-02   4.000000E-03   1.000000E+00
   1.433000E-02   1.500000E-05   5.000000E-03   1.000000E-03   1.000000E+00
   1.457000E-02   1.600000E-05   1.000000E-02   2.000000E-03   1.000000E+00
   1.473000E-02   1.600000E-05   1.000000E-02   2.000000E-03   1.000000E+00
   1.504500E-02   1.600000E-05   5.000000E-03   1.000000E-03   1.000000E+00
   1.518000E-02   1.700000E-05   1.000000E-02   2.000000E-03   1.000000E+00
   1.539000E-02   1.700000E-05   1.000000E-02   2.000000E-03   1.000000E+00
   1.551000E-02   1.700000E-05   5.000000E-03   1.000000E-03   1.000000E+00
   1.594000E-02   1.800000E-05   1.000000E-02   2.000000E-03   1.000000E+00
   1.616000E-02   1.800000E-05   1.500000E-02   3.000000E-03   1.000000E+00
   1.622000E-02   1.800000E-05   1.500000E-02   3.000000E-03   1.000000E+00
   1.649000E-02   1.900000E-05   1.500000E-02   3.000000E-03   1.000000E+00
   1.667000E-02   1.900000E-05   6.000000E-02   1.500000E-02   1.000000E+00
   1.700000E-02   2.000000E-05   5.000000E-02   1.000000E-02   1.000000E+00
# reference:
#   author: M.OHKUBO,Y.KAWARASAKI
#   title: -RESONANCE PARAMETERS OF RUBIDIUM UP TO 15 KEV.-
#   journal: Prog: Japanese report to NEANDC, No.67, p.2 (1980)
