# header:
#   title: Dy164(n,res) resonance parameter
#   source: EXFOR
#   user: Arjan Koning
#   date: 2024-01-18
#   format: YANDF-0.1
# exfor:
#   author: Liou
#   year: 1975
#   subentry: 105250062
#   X4 reaction: 66-DY-164(N,EL),,WID/RED
#   X4 source: IAEA-NDS C5 file, database version 2023-08-08
#   X4 link: https://nds.iaea.org/EXFOR/105250062
# target:
#   Z: 66
#   A: 164
#   nuclide: Dy164
# reaction:
#   type: (n,res)
#   ENDF_MF: 402
#   ENDF_MT: 151
# datablock:
#   quantity: resonance parameter
#   columns: 5
#   entries: 116
##       E             dE             par           dpar       Normalization
##     [eV]           [eV]            []             []             []
   1.469700E-04   3.200000E-07   6.800000E-02   4.000000E-03   1.000000E+00
   2.275700E-04   3.800000E-07   2.400000E-05   1.200000E-05   1.000000E+00
   4.504100E-04   4.200000E-07   1.200000E-02   1.000000E-03   1.000000E+00
   4.793900E-04   5.900000E-07   7.300000E-05   2.300000E-05   1.000000E+00
   5.363000E-04   2.800000E-07   5.000000E-03   4.000000E-04   1.000000E+00
   5.487600E-04   2.800000E-07   2.900000E-04   4.000000E-05   1.000000E+00
   7.409099E-04   5.600000E-07   1.100000E-04   6.000000E-05   1.000000E+00
   8.042400E-04   5.000000E-07   3.100000E-04   4.000000E-05   1.000000E+00
   8.538900E-04   5.500000E-07   1.900000E-02   2.000000E-03   1.000000E+00
   9.259000E-04   8.000000E-07   9.900000E-05   3.300000E-05   1.000000E+00
   9.409800E-04   8.100000E-07   1.600000E-04   7.000000E-05   1.000000E+00
   9.830600E-04   3.400000E-07   3.800000E-03   5.000000E-04   1.000000E+00
   1.052000E-03   3.800000E-07   7.100000E-03   9.000000E-04   1.000000E+00
   1.207700E-03   4.600000E-07   2.000000E-02   2.000000E-03   1.000000E+00
   1.286500E-03   1.300000E-06   1.200000E-04   7.000000E-05   1.000000E+00
   1.323600E-03   5.000000E-07   2.500000E-02   3.000000E-03   1.000000E+00
   1.405800E-03   1.500000E-06   1.700000E-04   4.000000E-05   1.000000E+00
   1.567400E-03   1.800000E-06   2.500000E-04   6.000000E-05   1.000000E+00
   1.588100E-03   4.000000E-07   5.500000E-03   8.000000E-04   1.000000E+00
   1.644700E-03   1.900000E-06   5.700000E-04   1.000000E-04   1.000000E+00
   1.709000E-03   4.000000E-07   2.400000E-04   6.000000E-05   1.000000E+00
   1.896200E-03   9.000000E-07   4.600000E-02   7.000000E-03   1.000000E+00
   1.960200E-03   5.000000E-07   2.800000E-02   3.000000E-03   1.000000E+00
   2.038700E-03   5.000000E-07   6.400000E-04   1.300000E-04   1.000000E+00
   2.065900E-03   2.600000E-06   1.010000E-03   2.200000E-04   1.000000E+00
   2.250700E-03   3.000000E-06   1.700000E-04   8.000000E-05   1.000000E+00
   2.285100E-03   6.000000E-07   6.500000E-04   1.300000E-04   1.000000E+00
   2.319300E-03   6.000000E-07   3.900000E-02   6.000000E-03   1.000000E+00
   2.352600E-03   3.200000E-06   1.600000E-04   1.200000E-04   1.000000E+00
   2.395800E-03   7.000000E-07   8.600000E-03   1.200000E-03   1.000000E+00
   2.536600E-03   7.000000E-07   1.300000E-02   2.000000E-03   1.000000E+00
   2.723200E-03   4.000000E-06   5.200000E-04   1.700000E-04   1.000000E+00
   2.804400E-03   4.200000E-06   3.000000E-04   1.100000E-04   1.000000E+00
   2.871900E-03   9.000000E-07   4.700000E-02   8.000000E-03   1.000000E+00
   2.968700E-03   9.000000E-07   5.900000E-02   7.000000E-03   1.000000E+00
   3.048200E-03   9.000000E-07   3.100000E-04   1.400000E-04   1.000000E+00
   3.100000E-03   4.800000E-06   3.400000E-04   1.400000E-04   1.000000E+00
   3.209000E-03   5.100000E-06   9.400000E-04   2.500000E-04   1.000000E+00
   3.281600E-03   1.000000E-06   3.800000E-03   5.000000E-04   1.000000E+00
   3.416800E-03   5.600000E-06   8.000000E-04   2.100000E-04   1.000000E+00
   3.460500E-03   1.100000E-06   9.500000E-04   2.000000E-04   1.000000E+00
   3.480600E-03   1.100000E-06   3.200000E-02   5.000000E-03   1.000000E+00
   3.520300E-03   1.200000E-06   1.200000E-03   2.000000E-04   1.000000E+00
   3.621000E-03   6.100000E-06   2.800000E-04   1.700000E-04   1.000000E+00
   3.734400E-03   1.300000E-06   1.200000E-02   2.000000E-03   1.000000E+00
   3.911600E-03   6.900000E-06   5.400000E-04   3.200000E-04   1.000000E+00
   4.095800E-03   7.300000E-06   9.400000E-04   6.300000E-04   1.000000E+00
   4.135200E-03   1.500000E-06   7.600000E-03   1.200000E-03   1.000000E+00
   4.231500E-03   1.500000E-06   3.400000E-02   5.000000E-03   1.000000E+00
   4.348800E-03   8.000000E-06   7.700000E-04   5.300000E-04   1.000000E+00
   4.389200E-03   8.100001E-06   4.400000E-04   4.400000E-04   1.000000E+00
   4.445800E-03   1.600000E-06   7.500000E-02   1.000000E-02   1.000000E+00
   4.757600E-03   3.600000E-06   2.000000E-03   9.000000E-04   1.000000E+00
   4.780100E-03   1.800000E-06   2.200000E-02   4.000000E-03   1.000000E+00
   4.810100E-03   1.900000E-06   1.560000E-01   2.300000E-02   1.000000E+00
   4.916000E-03   1.900000E-06   1.200000E-03   4.000000E-04   1.000000E+00
   4.954900E-03   1.900000E-06   2.400000E-03   7.000000E-04   1.000000E+00
   5.169900E-03   2.000000E-06   2.900000E-02   6.000000E-03   1.000000E+00
   5.211900E-03   2.100000E-06   1.800000E-01   3.000000E-02   1.000000E+00
   5.592100E-03   2.300000E-06   2.100000E-02   4.000000E-03   1.000000E+00
   5.702500E-03   2.400000E-06   3.200000E-03   9.000000E-04   1.000000E+00
   5.923300E-03   5.000000E-06   1.360000E-01   2.600000E-02   1.000000E+00
   6.096800E-03   2.600000E-06   2.300000E-02   5.000000E-03   1.000000E+00
   6.109800E-03   2.600000E-06   2.700000E-02   5.000000E-03   1.000000E+00
   6.280700E-03   2.700000E-06   8.700000E-02   1.300000E-02   1.000000E+00
   6.444700E-03   2.900000E-06   2.900000E-02   4.000000E-03   1.000000E+00
   6.621100E-03   3.000000E-06   4.700000E-02   7.000000E-03   1.000000E+00
   6.854200E-03   3.100000E-06   1.400000E-02   2.000000E-03   1.000000E+00
   6.996300E-03   3.200000E-06   1.200000E-02   2.000000E-03   1.000000E+00
   7.432200E-03   3.500000E-06   4.500000E-02   7.000000E-03   1.000000E+00
   7.695200E-03   3.700000E-06   8.700000E-02   1.400000E-02   1.000000E+00
   7.958700E-03   3.900000E-06   1.000000E-02   2.000000E-03   1.000000E+00
   8.090600E-03   4.000000E-06   3.400000E-02   6.000000E-03   1.000000E+00
   8.252400E-03   4.100000E-06   4.800000E-02   8.000000E-03   1.000000E+00
   8.368599E-03   4.200000E-06   4.000000E-03   1.600000E-03   1.000000E+00
   8.763500E-03   4.500000E-06   8.100000E-03   1.900000E-03   1.000000E+00
   9.358300E-03   5.000000E-06   1.100000E-02   3.000000E-03   1.000000E+00
   9.400500E-03   5.000000E-06   1.500000E-02   3.000000E-03   1.000000E+00
   9.702099E-03   5.200000E-06   2.400000E-02   4.000000E-03   1.000000E+00
   1.097400E-02   6.000000E-06   6.600001E-02   1.000000E-02   1.000000E+00
   1.153000E-02   7.000000E-06   6.300000E-02   9.000000E-03   1.000000E+00
   1.175300E-02   7.000000E-06   3.000000E-02   5.000000E-03   1.000000E+00
   1.189000E-02   7.000000E-06   1.900000E-02   4.000000E-03   1.000000E+00
   1.241100E-02   8.000000E-06   8.400001E-02   1.400000E-02   1.000000E+00
   1.289400E-02   8.000000E-06   1.700000E-02   4.000000E-03   1.000000E+00
   1.294200E-02   8.000000E-06   5.300000E-02   1.100000E-02   1.000000E+00
   1.306000E-02   8.000000E-06   2.600000E-01   4.000000E-02   1.000000E+00
   1.328000E-02   9.000000E-06   3.400000E-02   7.000000E-03   1.000000E+00
   1.346600E-02   9.000000E-06   2.300000E-02   4.000000E-03   1.000000E+00
   1.376200E-02   9.000000E-06   2.200000E-02   4.000000E-03   1.000000E+00
   1.407600E-02   9.000000E-06   1.400000E-02   4.000000E-03   1.000000E+00
   1.414100E-02   9.000000E-06   6.600001E-02   1.300000E-02   1.000000E+00
   1.429800E-02   9.000000E-06   2.200000E-02   5.000000E-03   1.000000E+00
   1.469000E-02   1.000000E-05   6.900001E-02   1.300000E-02   1.000000E+00
   1.488200E-02   1.000000E-05   3.400000E-02   7.000000E-03   1.000000E+00
   1.533500E-02   1.100000E-05   3.500000E-02   7.000000E-03   1.000000E+00
   1.545500E-02   1.100000E-05   5.100000E-02   1.000000E-02   1.000000E+00
   1.555000E-02   1.100000E-05   3.400000E-02   7.000000E-03   1.000000E+00
   1.584600E-02   1.100000E-05   1.700000E-02   5.000000E-03   1.000000E+00
   1.617900E-02   1.100000E-05   4.500000E-02   9.000000E-03   1.000000E+00
   1.719400E-02   1.300000E-05   2.800000E-02   7.000000E-03   1.000000E+00
   1.774400E-02   1.300000E-05   1.400000E-02   5.000000E-03   1.000000E+00
   1.790000E-02   1.300000E-05   1.700000E-01   3.000000E-02   1.000000E+00
   1.821200E-02   1.400000E-05   4.100000E-02   8.000000E-03   1.000000E+00
   1.830700E-02   1.400000E-05   3.300000E-02   1.000000E-02   1.000000E+00
   1.836800E-02   1.400000E-05   9.600001E-02   2.200000E-02   1.000000E+00
   1.863700E-02   1.400000E-05   4.500000E-02   1.300000E-02   1.000000E+00
   1.868500E-02   1.400000E-05   8.000001E-02   2.200000E-02   1.000000E+00
   1.912700E-02   1.500000E-05   4.600000E-02   9.000000E-03   1.000000E+00
   1.929500E-02   1.500000E-05   4.800000E-02   1.000000E-02   1.000000E+00
   1.972800E-02   1.500000E-05   3.000000E-02   9.000000E-03   1.000000E+00
   1.980400E-02   1.500000E-05   6.700000E-02   2.000000E-02   1.000000E+00
   2.031700E-02   1.600000E-05   4.600000E-02   1.300000E-02   1.000000E+00
   2.057300E-02   1.600000E-05   4.400000E-02   1.300000E-02   1.000000E+00
   2.091700E-02   1.700000E-05   6.300000E-02   2.100000E-02   1.000000E+00
   2.115100E-02   1.700000E-05   6.500001E-02   2.100000E-02   1.000000E+00
# reference:
#   author: H.I.Liou,G.Hacken,J.Rainwater,U.N.Singh
#   title: Neutron resonance spectroscopy: The separated isotopes  of Dy
#   journal: Jour: Physical Review, Part C, Nuclear Physics, Vol.11, p.462 (1975)
