# header:
#   title: O16(n,res) resonance parameter
#   source: EXFOR
#   user: Arjan Koning
#   date: 2024-01-18
#   format: YANDF-0.1
# exfor:
#   author: Cierjacks
#   year: 1980
#   subentry: 207420052
#   X4 reaction: 8-O-16(N,TOT),,WID
#   X4 source: IAEA-NDS C5 file, database version 2023-08-08
#   X4 link: https://nds.iaea.org/EXFOR/207420052
# target:
#   Z: 8
#   A: 16
#   nuclide: O16
# reaction:
#   type: (n,res)
#   ENDF_MF: 402
#   ENDF_MT: 151
# datablock:
#   quantity: resonance parameter
#   columns: 5
#   entries: 25
##       E             dE             par           dpar       Normalization
##     [eV]           [eV]            []             []             []
   3.211700E+00   1.700000E-04   1.450000E+03   5.000000E+01   1.000000E+00
   3.438380E+00   1.900000E-04   6.800000E+02   2.400000E+02   1.000000E+00
   3.441730E+00   1.400000E-04   1.020000E+03   2.100000E+02   1.000000E+00
   3.767760E+00   2.200000E-04   1.540000E+04   3.000000E+02   1.000000E+00
   4.463410E+00   2.600000E-04   1.210000E+04   5.000000E+02   1.000000E+00
   4.527120E+00   7.000000E-05   6.560000E+03   1.400000E+02   1.000000E+00
   4.594830E+00   9.000000E-05   2.260000E+03   1.200000E+02   1.000000E+00
   4.631780E+00   1.200000E-04   7.330000E+03   2.300000E+02   1.000000E+00
   4.829900E+00   4.000000E-04   5.880000E+04   6.000000E+02   1.000000E+00
   5.127000E+00   1.600000E-03   2.800000E+04   2.000000E+03   1.000000E+00
   5.368900E+00   9.000000E-05   3.750000E+03   1.400000E+02   1.000000E+00
   5.919670E+00   1.400000E-04   2.460000E+04   3.000000E+02   1.000000E+00
   5.995680E+00   1.500000E-04   1.240000E+04   3.000000E+02   1.000000E+00
   6.076080E+00   1.500000E-04   4.260000E+03   2.400000E+02   1.000000E+00
   6.094800E+00   1.000000E-03   1.780000E+04   1.800000E+03   1.000000E+00
   6.404600E+00   5.000000E-04   5.220000E+04   8.000000E+02   1.000000E+00
   6.820700E+00   6.000000E-04   4.520000E+04   1.200000E+03   1.000000E+00
   7.199300E+00   1.300000E-03   4.440000E+04   1.500000E+03   1.000000E+00
   7.373310E+00   1.800000E-04   2.400000E+03   3.000000E+02   1.000000E+00
   8.848800E+00   6.000000E-04   6.900000E+03   1.100000E+03   1.000000E+00
   9.414900E+00   6.000000E-04   2.500000E+03   1.000000E+03   1.000000E+00
   1.009250E+01   2.400000E-03   9.000000E+03   5.000000E+03   1.000000E+00
   1.072550E+01   1.500000E-03   2.050000E+04   1.600000E+03   1.000000E+00
   1.078500E+01   3.000000E-03   7.500000E+03   4.000000E+03   1.000000E+00
   1.485300E+01   4.000000E-03   4.600000E+04   1.200000E+04   1.000000E+00
# reference:
#   author: S.Cierjacks, F.Hinterberger, G.Schmalz, D.Erbe,  P.V.Rossen, B.Leugers
#   title: High precision time-of-flight measurements of neutron  resonance energies in carbon and oxygen between 3 and  30 MeV
#   journal: Jour: Nuclear Instrum.and Methods in Physics Res., Vol.169, p.185 (1980)
