# header:
#   title: Mo0(n,xn) emission spectrum at  1.410000E+01 MeV
#   source: EXFOR
#   user: Arjan Koning
#   date: 2024-01-18
#   format: YANDF-0.1
# exfor:
#   author: Takahashi
#   year: 1992
#   subentry: 221860582
#   X4 reaction: 42-MO-0(N,X)0-NN-1,,DE
#   X4 source: IAEA-NDS C5 file, database version 2023-08-08
#   X4 link: https://nds.iaea.org/EXFOR/221860582
# target:
#   Z: 42
#   A: 0
#   nuclide: Mo0
# reaction:
#   type: (n,xn)
#   ENDF_MF: 5
#   ENDF_MT: 201
#   E-incident [MeV]:  1.410000E+01
# datablock:
#   quantity: emission spectrum
#   columns: 5
#   entries: 70
##     E-out         dE-out           xs             dxs       Normalization
##     [MeV]          [MeV]       [mb/MeV.sr]    [mb/MeV.sr]        []
   1.100000E+00   1.000000E-01   1.150000E-03   9.270000E-05   1.000000E+00
   1.300000E+00   1.000000E-01   9.130000E-04   9.400000E-06   1.000000E+00
   1.500000E+00   1.000000E-01   8.070000E-04   4.910000E-06   1.000000E+00
   1.700000E+00   1.000000E-01   6.370000E-04   3.220000E-06   1.000000E+00
   1.900000E+00   1.000000E-01   5.560000E-04   2.660000E-06   1.000000E+00
   2.100000E+00   1.000000E-01   4.830000E-04   2.360000E-06   1.000000E+00
   2.300000E+00   1.000000E-01   4.200000E-04   2.190000E-06   1.000000E+00
   2.500000E+00   1.000000E-01   3.550000E-04   2.100000E-06   1.000000E+00
   2.700000E+00   1.000000E-01   2.970000E-04   1.880000E-06   1.000000E+00
   2.900000E+00   1.000000E-01   2.550000E-04   1.740000E-06   1.000000E+00
   3.100000E+00   1.000000E-01   2.280000E-04   1.660000E-06   1.000000E+00
   3.300000E+00   1.000000E-01   1.930000E-04   1.590000E-06   1.000000E+00
   3.500000E+00   1.000000E-01   1.670000E-04   1.520000E-06   1.000000E+00
   3.700000E+00   1.000000E-01   1.470000E-04   1.480000E-06   1.000000E+00
   3.900000E+00   1.000000E-01   1.320000E-04   1.430000E-06   1.000000E+00
   4.100000E+00   1.000000E-01   1.180000E-04   1.390000E-06   1.000000E+00
   4.300000E+00   1.000000E-01   1.070000E-04   1.350000E-06   1.000000E+00
   4.500000E+00   1.000000E-01   9.420000E-05   1.310000E-06   1.000000E+00
   4.700000E+00   1.000000E-01   8.340000E-05   1.280000E-06   1.000000E+00
   4.900000E+00   1.000000E-01   7.600000E-05   1.250000E-06   1.000000E+00
   5.100000E+00   1.000000E-01   6.770000E-05   1.210000E-06   1.000000E+00
   5.300000E+00   1.000000E-01   6.450000E-05   1.210000E-06   1.000000E+00
   5.500000E+00   1.000000E-01   5.620000E-05   1.190000E-06   1.000000E+00
   5.700000E+00   1.000000E-01   5.270000E-05   1.170000E-06   1.000000E+00
   5.900000E+00   1.000000E-01   4.980000E-05   1.140000E-06   1.000000E+00
   6.100000E+00   1.000000E-01   4.890000E-05   1.120000E-06   1.000000E+00
   6.300000E+00   1.000000E-01   4.510000E-05   1.090000E-06   1.000000E+00
   6.500000E+00   1.000000E-01   4.060000E-05   1.080000E-06   1.000000E+00
   6.700000E+00   1.000000E-01   4.040000E-05   1.070000E-06   1.000000E+00
   6.900000E+00   1.000000E-01   4.010000E-05   1.060000E-06   1.000000E+00
   7.100000E+00   1.000000E-01   3.680000E-05   1.060000E-06   1.000000E+00
   7.300000E+00   1.000000E-01   3.370000E-05   1.060000E-06   1.000000E+00
   7.500000E+00   1.000000E-01   3.180000E-05   1.050000E-06   1.000000E+00
   7.700000E+00   1.000000E-01   3.130000E-05   1.030000E-06   1.000000E+00
   7.900000E+00   1.000000E-01   2.960000E-05   1.030000E-06   1.000000E+00
   8.100000E+00   1.000000E-01   2.720000E-05   1.010000E-06   1.000000E+00
   8.300000E+00   1.000000E-01   2.760000E-05   9.830001E-07   1.000000E+00
   8.500000E+00   1.000000E-01   2.600000E-05   9.570000E-07   1.000000E+00
   8.700000E+00   1.000000E-01   2.470000E-05   9.340000E-07   1.000000E+00
   8.900000E+00   1.000000E-01   2.290000E-05   9.280000E-07   1.000000E+00
   9.100000E+00   1.000000E-01   2.290000E-05   8.990000E-07   1.000000E+00
   9.300000E+00   1.000000E-01   2.280000E-05   8.910000E-07   1.000000E+00
   9.500000E+00   1.000000E-01   2.430000E-05   9.210000E-07   1.000000E+00
   9.700000E+00   1.000000E-01   3.400000E-05   1.110000E-06   1.000000E+00
   9.900000E+00   1.000000E-01   3.350000E-05   1.120000E-06   1.000000E+00
   1.010000E+01   1.000000E-01   3.460000E-05   1.130000E-06   1.000000E+00
   1.030000E+01   1.000000E-01   3.560000E-05   1.130000E-06   1.000000E+00
   1.050000E+01   1.000000E-01   3.710000E-05   1.140000E-06   1.000000E+00
   1.070000E+01   1.000000E-01   4.070000E-05   1.150000E-06   1.000000E+00
   1.090000E+01   1.000000E-01   4.980000E-05   1.190000E-06   1.000000E+00
   1.110000E+01   1.000000E-01   5.520000E-05   1.220000E-06   1.000000E+00
   1.130000E+01   1.000000E-01   6.160000E-05   1.250000E-06   1.000000E+00
   1.150000E+01   1.000000E-01   6.350000E-05   1.300000E-06   1.000000E+00
   1.170000E+01   1.000000E-01   6.390001E-05   1.340000E-06   1.000000E+00
   1.190000E+01   1.000000E-01   6.590000E-05   1.350000E-06   1.000000E+00
   1.210000E+01   1.000000E-01   6.500000E-05   1.380000E-06   1.000000E+00
   1.230000E+01   1.000000E-01   6.500000E-05   1.420000E-06   1.000000E+00
   1.250000E+01   1.000000E-01   7.560000E-05   1.480000E-06   1.000000E+00
   1.270000E+01   1.000000E-01   9.790000E-05   1.530000E-06   1.000000E+00
   1.290000E+01   1.000000E-01   1.220000E-04   1.620000E-06   1.000000E+00
   1.310000E+01   1.000000E-01   1.790000E-04   1.840000E-06   1.000000E+00
   1.330000E+01   1.000000E-01   2.790000E-04   2.150000E-06   1.000000E+00
   1.350000E+01   1.000000E-01   5.000000E-04   2.670000E-06   1.000000E+00
   1.370000E+01   1.000000E-01   1.090000E-03   3.490000E-06   1.000000E+00
   1.390000E+01   1.000000E-01   2.240000E-03   4.840000E-06   1.000000E+00
   1.410000E+01   1.000000E-01   3.270000E-03   5.900000E-06   1.000000E+00
   1.430000E+01   1.000000E-01   3.130000E-03   8.720000E-06   1.000000E+00
   1.450000E+01   1.000000E-01   1.500000E-03   7.820000E-06   1.000000E+00
   1.470000E+01   1.000000E-01   5.100000E-04   7.650000E-06   1.000000E+00
   1.490000E+01   1.000000E-01   1.790000E-04   7.850000E-06   1.000000E+00
# reference:
#   author: A.Takahashi, M.Gotoh, Y.Sasaki, H.Sugimoto,  K.Yamanaka, H.Kanazawa, F.Maekawa
#   title: Measurement of double differential neutron emission  cross sections at 14.1 MeV for Ti, Mo, Sn and Sb
#   journal: Rept: Osaka Univ., OKTAVIAN Reports, No.92-01 (1992)
