# header:
#   title: Zr93(n,res) resonance parameter
#   source: EXFOR
#   user: Arjan Koning
#   date: 2024-01-18
#   format: YANDF-0.1
# exfor:
#   author: Macklin
#   year: 1985
#   subentry: 129150022
#   X4 reaction: 40-ZR-93(N,G),,ARE
#   X4 source: IAEA-NDS C5 file, database version 2023-08-08
#   X4 link: https://nds.iaea.org/EXFOR/129150022
# target:
#   Z: 40
#   A: 93
#   nuclide: Zr93
# reaction:
#   type: (n,res)
#   ENDF_MF: 404
#   ENDF_MT: 151
# datablock:
#   quantity: resonance parameter
#   columns: 5
#   entries: 138
##       E             dE             par           dpar       Normalization
##     [eV]           [eV]            []             []             []
   1.104000E-04   0.000000E+00   3.540000E-02   4.000000E-04   1.000000E+00
   2.251000E-04   0.000000E+00   7.510000E-03   3.000000E-05   1.000000E+00
   6.693000E-04   0.000000E+00   2.510000E-02   1.000000E-04   1.000000E+00
   6.935000E-04   0.000000E+00   5.590000E-02   4.000000E-04   1.000000E+00
   8.825000E-04   0.000000E+00   4.600000E-03   1.000000E-04   1.000000E+00
   9.346000E-04   0.000000E+00   5.040000E-02   1.000000E-04   1.000000E+00
   1.010900E-03   0.000000E+00   2.990000E-02   1.000000E-04   1.000000E+00
   1.238300E-03   0.000000E+00   1.030000E-02   1.000000E-04   1.000000E+00
   1.575000E-03   0.000000E+00   2.660000E-02   2.000000E-04   1.000000E+00
   1.642700E-03   0.000000E+00   2.700000E-02   4.000000E-04   1.000000E+00
   1.708600E-03   0.000000E+00   8.800000E-03   3.000000E-04   1.000000E+00
   1.743600E-03   0.000000E+00   4.090000E-02   2.000000E-04   1.000000E+00
   1.802800E-03   0.000000E+00   4.100000E-02   2.000000E-04   1.000000E+00
   2.053700E-03   0.000000E+00   5.100000E-02   7.000000E-04   1.000000E+00
   2.116800E-03   0.000000E+00   1.300000E-02   3.000000E-04   1.000000E+00
   2.320700E-03   0.000000E+00   4.950000E-02   2.000000E-04   1.000000E+00
   2.359600E-03   0.000000E+00   2.280000E-02   1.400000E-03   1.000000E+00
   2.404300E-03   0.000000E+00   7.800000E-03   3.000000E-04   1.000000E+00
   2.611500E-03   0.000000E+00   4.010000E-02   6.000000E-04   1.000000E+00
   2.900000E-03   0.000000E+00   4.990000E-02   7.000000E-04   1.000000E+00
   3.010000E-03   0.000000E+00   6.490000E-02   1.000000E-03   1.000000E+00
   3.253000E-03   0.000000E+00   1.239000E-01   5.600000E-03   1.000000E+00
   3.513000E-03   0.000000E+00   4.960000E-02   1.100000E-03   1.000000E+00
   3.693000E-03   0.000000E+00   7.880001E-02   1.500000E-03   1.000000E+00
   3.701000E-03   0.000000E+00   2.780000E-02   1.100000E-03   1.000000E+00
   3.998000E-03   0.000000E+00   6.980000E-02   1.600000E-03   1.000000E+00
   4.121000E-03   0.000000E+00   1.763000E-01   4.400000E-03   1.000000E+00
   4.157000E-03   0.000000E+00   7.320000E-02   1.500000E-03   1.000000E+00
   4.290000E-03   0.000000E+00   1.850000E-02   1.200000E-03   1.000000E+00
   4.322000E-03   0.000000E+00   5.940000E-02   4.100000E-03   1.000000E+00
   4.433000E-03   0.000000E+00   3.330000E-02   1.100000E-03   1.000000E+00
   4.485000E-03   0.000000E+00   8.010000E-02   1.800000E-03   1.000000E+00
   4.578000E-03   0.000000E+00   5.910000E-02   1.400000E-03   1.000000E+00
   4.781000E-03   0.000000E+00   3.160000E-02   8.000000E-04   1.000000E+00
   5.013000E-03   0.000000E+00   1.049000E-01   2.100000E-03   1.000000E+00
   5.031000E-03   0.000000E+00   5.360000E-02   1.900000E-03   1.000000E+00
   5.135000E-03   0.000000E+00   6.700000E-02   1.600000E-03   1.000000E+00
   5.542000E-03   0.000000E+00   3.560000E-02   1.800000E-03   1.000000E+00
   5.679000E-03   0.000000E+00   4.920000E-02   1.700000E-03   1.000000E+00
   5.741000E-03   0.000000E+00   6.040001E-02   2.000000E-03   1.000000E+00
   5.914000E-03   0.000000E+00   1.430000E-01   7.000000E-03   1.000000E+00
   5.924000E-03   0.000000E+00   2.420000E-02   2.000000E-03   1.000000E+00
   6.112000E-03   0.000000E+00   3.670000E-02   2.200000E-03   1.000000E+00
   6.211000E-03   0.000000E+00   4.270000E-02   2.300000E-03   1.000000E+00
   6.342000E-03   0.000000E+00   6.900001E-02   2.900000E-03   1.000000E+00
   6.379000E-03   0.000000E+00   5.480000E-02   2.600000E-03   1.000000E+00
   6.641000E-03   0.000000E+00   1.260000E-01   7.000000E-03   1.000000E+00
   6.770000E-03   0.000000E+00   6.200000E-02   4.000000E-03   1.000000E+00
   6.803000E-03   0.000000E+00   1.400000E-02   2.000000E-03   1.000000E+00
   6.980000E-03   0.000000E+00   3.700000E-02   2.000000E-03   1.000000E+00
   7.076000E-03   0.000000E+00   2.600000E-02   3.000000E-03   1.000000E+00
   7.172000E-03   0.000000E+00   1.160000E-01   4.000000E-03   1.000000E+00
   7.413000E-03   0.000000E+00   5.100000E-02   3.000000E-03   1.000000E+00
   7.590000E-03   0.000000E+00   4.500000E-02   2.000000E-03   1.000000E+00
   7.776000E-03   0.000000E+00   5.600000E-02   5.000000E-03   1.000000E+00
   7.896000E-03   0.000000E+00   7.500000E-02   3.000000E-03   1.000000E+00
   7.953000E-03   0.000000E+00   1.910000E-01   5.000000E-03   1.000000E+00
   8.410000E-03   0.000000E+00   3.800000E-02   3.000000E-03   1.000000E+00
   8.472000E-03   0.000000E+00   6.200000E-02   3.000000E-03   1.000000E+00
   8.579000E-03   0.000000E+00   6.400000E-02   3.000000E-03   1.000000E+00
   8.607000E-03   0.000000E+00   4.800000E-02   3.000000E-03   1.000000E+00
   8.641000E-03   0.000000E+00   1.000000E-01   4.000000E-03   1.000000E+00
   8.844000E-03   0.000000E+00   3.400000E-02   4.000000E-03   1.000000E+00
   9.097000E-03   0.000000E+00   4.900000E-02   6.000000E-03   1.000000E+00
   9.136000E-03   0.000000E+00   1.900000E-02   3.000000E-03   1.000000E+00
   9.494000E-03   0.000000E+00   4.000000E-02   3.000000E-03   1.000000E+00
   9.530000E-03   0.000000E+00   7.600001E-02   3.000000E-03   1.000000E+00
   9.790000E-03   0.000000E+00   3.700000E-02   3.000000E-03   1.000000E+00
   9.816000E-03   0.000000E+00   5.600000E-02   7.000000E-03   1.000000E+00
   9.851000E-03   0.000000E+00   7.900000E-02   4.000000E-03   1.000000E+00
   9.939000E-03   0.000000E+00   2.900000E-02   3.000000E-03   1.000000E+00
   1.024500E-02   0.000000E+00   1.070000E-01   5.000000E-03   1.000000E+00
   1.036400E-02   0.000000E+00   6.400000E-02   3.000000E-03   1.000000E+00
   1.042100E-02   0.000000E+00   7.100000E-02   3.000000E-03   1.000000E+00
   1.062200E-02   0.000000E+00   1.200000E-01   5.000000E-03   1.000000E+00
   1.076100E-02   0.000000E+00   3.400000E-02   4.000000E-03   1.000000E+00
   1.078800E-02   0.000000E+00   8.900001E-02   4.000000E-03   1.000000E+00
   1.085400E-02   0.000000E+00   5.900000E-02   3.000000E-03   1.000000E+00
   1.110400E-02   0.000000E+00   2.020000E-01   1.000000E-02   1.000000E+00
   1.137100E-02   0.000000E+00   7.900000E-02   5.000000E-03   1.000000E+00
   1.150000E-02   0.000000E+00   9.000000E-02   4.000000E-03   1.000000E+00
   1.172000E-02   0.000000E+00   1.080000E-01   5.000000E-03   1.000000E+00
   1.176000E-02   0.000000E+00   7.700001E-02   4.000000E-03   1.000000E+00
   1.180000E-02   0.000000E+00   3.600000E-02   3.000000E-03   1.000000E+00
   1.194000E-02   0.000000E+00   1.320000E-01   8.000000E-03   1.000000E+00
   1.197000E-02   0.000000E+00   5.000000E-02   6.000000E-03   1.000000E+00
   1.224000E-02   0.000000E+00   8.100001E-02   7.000000E-03   1.000000E+00
   1.246000E-02   0.000000E+00   6.000000E-02   6.000000E-03   1.000000E+00
   1.250000E-02   0.000000E+00   8.200000E-02   9.000000E-03   1.000000E+00
   1.256000E-02   0.000000E+00   3.200000E-02   1.000000E-02   1.000000E+00
   1.265000E-02   0.000000E+00   9.000000E-03   8.000000E-03   1.000000E+00
   1.266000E-02   0.000000E+00   5.900000E-02   7.000000E-03   1.000000E+00
   1.308000E-02   0.000000E+00   4.400000E-02   8.000000E-03   1.000000E+00
   1.317000E-02   0.000000E+00   7.700001E-02   7.000000E-03   1.000000E+00
   1.329000E-02   0.000000E+00   9.300000E-02   1.900000E-02   1.000000E+00
   1.339000E-02   0.000000E+00   9.100001E-02   7.000000E-03   1.000000E+00
   1.344000E-02   0.000000E+00   6.400000E-02   6.000000E-03   1.000000E+00
   1.351000E-02   0.000000E+00   8.200000E-02   1.300000E-02   1.000000E+00
   1.364000E-02   0.000000E+00   2.320000E-01   1.600000E-02   1.000000E+00
   1.371000E-02   0.000000E+00   2.400000E-02   1.100000E-02   1.000000E+00
   1.384000E-02   0.000000E+00   1.600000E-01   7.000000E-03   1.000000E+00
   1.406000E-02   0.000000E+00   3.700000E-02   7.000000E-03   1.000000E+00
   1.421000E-02   0.000000E+00   2.200000E-02   5.000000E-03   1.000000E+00
   1.427000E-02   0.000000E+00   4.600000E-02   5.000000E-03   1.000000E+00
   1.439000E-02   0.000000E+00   1.220000E-01   1.400000E-02   1.000000E+00
   1.465000E-02   0.000000E+00   6.900001E-02   5.000000E-03   1.000000E+00
   1.486000E-02   0.000000E+00   4.100000E-02   7.000000E-03   1.000000E+00
   1.500000E-02   0.000000E+00   5.000000E-02   5.000000E-03   1.000000E+00
   1.526000E-02   0.000000E+00   6.900001E-02   1.100000E-02   1.000000E+00
   1.537300E-02   0.000000E+00   3.300000E-02   1.000000E-02   1.000000E+00
   1.558000E-02   0.000000E+00   1.030000E-01   1.100000E-02   1.000000E+00
   1.562000E-02   0.000000E+00   3.900000E-02   8.000000E-03   1.000000E+00
   1.591000E-02   0.000000E+00   1.170000E-01   1.000000E-02   1.000000E+00
   1.600000E-02   0.000000E+00   2.800000E-02   1.000000E-02   1.000000E+00
   1.619000E-02   0.000000E+00   1.420000E-01   1.800000E-02   1.000000E+00
   1.645000E-02   0.000000E+00   8.700000E-02   1.100000E-02   1.000000E+00
   1.654000E-02   0.000000E+00   5.800000E-02   1.000000E-02   1.000000E+00
   1.660000E-02   0.000000E+00   6.200000E-02   9.000000E-03   1.000000E+00
   1.713000E-02   0.000000E+00   9.800000E-02   1.900000E-02   1.000000E+00
   1.744000E-02   0.000000E+00   5.700000E-02   1.800000E-02   1.000000E+00
   1.757000E-02   0.000000E+00   8.400001E-02   1.100000E-02   1.000000E+00
   1.791000E-02   0.000000E+00   3.790000E-01   2.400000E-02   1.000000E+00
   1.808000E-02   0.000000E+00   7.000001E-02   7.000000E-03   1.000000E+00
   1.826000E-02   0.000000E+00   1.440000E-01   1.000000E-02   1.000000E+00
   1.843000E-02   0.000000E+00   5.700000E-02   6.000000E-03   1.000000E+00
   1.855000E-02   0.000000E+00   7.900000E-02   1.100000E-02   1.000000E+00
   1.860000E-02   0.000000E+00   6.500001E-02   8.000000E-03   1.000000E+00
   1.867000E-02   0.000000E+00   1.020000E-01   1.300000E-02   1.000000E+00
   1.900000E-02   0.000000E+00   7.800000E-02   7.000000E-03   1.000000E+00
   1.907000E-02   0.000000E+00   1.260000E-01   1.400000E-02   1.000000E+00
   1.932000E-02   0.000000E+00   5.700000E-02   7.000000E-03   1.000000E+00
   1.943000E-02   0.000000E+00   7.400000E-02   9.000000E-03   1.000000E+00
   1.970000E-02   0.000000E+00   1.600000E-01   1.500000E-02   1.000000E+00
   2.022000E-02   0.000000E+00   1.030000E-01   1.900000E-02   1.000000E+00
   2.032000E-02   0.000000E+00   9.600001E-02   1.500000E-02   1.000000E+00
   2.083000E-02   0.000000E+00   1.400000E-01   1.700000E-02   1.000000E+00
   2.109000E-02   0.000000E+00   1.990000E-01   1.500000E-02   1.000000E+00
   2.144000E-02   0.000000E+00   1.620000E-01   1.400000E-02   1.000000E+00
# reference:
#   author: R.L.MACKLIN
#   title: NEUTRON CAPTURE MEASUREMENTS ON RADIOACTIVE 42-ZR-93.
#   journal: Jour: Astrophysics and Space Science, Vol.115, p.71 (1985)
