# header:
#   title: Sb121(n,res) resonance parameter
#   source: EXFOR
#   user: Arjan Koning
#   date: 2024-01-18
#   format: YANDF-0.1
# exfor:
#   author: Ohkubo
#   year: 1972
#   subentry: 234900023
#   X4 reaction: 51-SB-121(N,EL),,WID/RED,,2G
#   X4 source: IAEA-NDS C5 file, database version 2023-08-08
#   X4 link: https://nds.iaea.org/EXFOR/234900023
# target:
#   Z: 51
#   A: 121
#   nuclide: Sb121
# reaction:
#   type: (n,res)
#   ENDF_MF: 402
#   ENDF_MT: 151
# datablock:
#   quantity: resonance parameter
#   columns: 5
#   entries: 30
##       E             dE             par           dpar       Normalization
##     [eV]           [eV]            []             []             []
   6.237000E-06   1.500000E-08   7.800000E-04   5.000000E-05   1.000000E+00
   1.543000E-05   5.000000E-08   1.920000E-03   2.000000E-04   1.000000E+00
   2.968000E-05   1.000000E-07   1.020000E-03   7.000000E-05   1.000000E+00
   3.790000E-05   3.000000E-08   2.600000E-06   4.000000E-07   1.000000E+00
   5.360000E-05   4.000000E-08   2.600000E-04   3.000000E-05   1.000000E+00
   5.520000E-05   4.000000E-08   4.200000E-06   1.000000E-06   1.000000E+00
   6.450000E-05   5.000000E-08   8.400000E-05   7.000000E-06   1.000000E+00
   7.380000E-05   7.000000E-08   8.800000E-04   7.000000E-05   1.000000E+00
   8.970000E-05   9.000000E-08   1.400000E-03   3.500000E-04   1.000000E+00
   9.040000E-05   9.000000E-08   6.000000E-04   1.700000E-04   1.000000E+00
   1.114000E-04   1.200000E-07   2.600000E-04   3.000000E-05   1.000000E+00
   1.267000E-04   1.500000E-07   2.600000E-03   3.500000E-04   1.000000E+00
   1.443000E-04   1.500000E-07   1.200000E-03   1.000000E-04   1.000000E+00
   1.499000E-04   2.000000E-07   2.100000E-03   1.800000E-04   1.000000E+00
   1.607000E-04   2.000000E-07   1.000000E-04   2.000000E-05   1.000000E+00
   1.671000E-04   2.000000E-07   1.100000E-03   1.000000E-04   1.000000E+00
   1.848000E-04   2.000000E-07   1.500000E-05   4.000000E-06   1.000000E+00
   2.140000E-04   3.000000E-07   1.000000E-04   1.000000E-05   1.000000E+00
   2.228000E-04   3.000000E-07   3.100000E-04   3.000000E-05   1.000000E+00
   2.309000E-04   3.000000E-07   5.000000E-05   2.000000E-05   1.000000E+00
   2.462000E-04   4.000000E-07   1.500000E-05   8.000000E-06   1.000000E+00
   2.494000E-04   4.000000E-07   1.500000E-05   8.000000E-06   1.000000E+00
   2.618000E-04   4.000000E-07   1.500000E-05   8.000000E-06   1.000000E+00
   2.660000E-04   4.000000E-07   1.500000E-05   8.000000E-06   1.000000E+00
   2.703000E-04   4.000000E-07   1.500000E-05   8.000000E-06   1.000000E+00
   2.752000E-04   4.000000E-07   1.500000E-05   8.000000E-06   1.000000E+00
   2.866000E-04   5.000000E-07   1.500000E-05   8.000000E-06   1.000000E+00
   3.098000E-04   5.000000E-07   1.400000E-04   4.000000E-05   1.000000E+00
   3.389000E-04   6.000000E-07   4.500000E-04   1.000000E-04   1.000000E+00
   4.217000E-04   9.000000E-07   3.500000E-04   1.000000E-04   1.000000E+00
# reference:
#   author: M.Ohkubo, Y.Nakajima,A.Asami,T.Fuketa
#   title: Slow neutron resonances of antimony
#   journal: Jour: Journal of the Physical Society of Japan, Vol.33, p.1185 (1972)
