# header:
#   title: Sn122(n,res) resonance parameter
#   source: EXFOR
#   user: Arjan Koning
#   date: 2024-01-18
#   format: YANDF-0.1
# exfor:
#   author: Nakajima
#   year: 1990
#   subentry: 230030042
#   X4 reaction: 50-SN-122(N,EL),,WID,,G
#   X4 source: IAEA-NDS C5 file, database version 2023-08-08
#   X4 link: https://nds.iaea.org/EXFOR/230030042
# target:
#   Z: 50
#   A: 122
#   nuclide: Sn122
# reaction:
#   type: (n,res)
#   ENDF_MF: 402
#   ENDF_MT: 151
# datablock:
#   quantity: resonance parameter
#   columns: 5
#   entries: 21
##       E             dE             par           dpar       Normalization
##     [eV]           [eV]            []             []             []
   1.751200E-03   0.000000E+00   3.030000E+00   4.000000E-02   1.000000E+00
   3.452900E-03   0.000000E+00   2.300000E-01   2.000000E-02   1.000000E+00
   3.896700E-03   0.000000E+00   1.900000E-01   2.000000E-02   1.000000E+00
   4.838100E-03   0.000000E+00   3.700000E-01   3.000000E-02   1.000000E+00
   5.688300E-03   0.000000E+00   3.100000E-01   4.000000E-02   1.000000E+00
   6.817200E-03   0.000000E+00   1.840000E+01   4.000000E-01   1.000000E+00
   6.921800E-03   0.000000E+00   4.500000E-01   6.000000E-02   1.000000E+00
   7.973700E-03   0.000000E+00   2.900000E-01   6.000000E-02   1.000000E+00
   9.446500E-03   0.000000E+00   8.600000E-01   1.100000E-01   1.000000E+00
   1.182400E-02   0.000000E+00   1.890000E+00   1.900000E-01   1.000000E+00
   1.323400E-02   0.000000E+00   1.840000E+00   2.600000E-01   1.000000E+00
   1.381900E-02   0.000000E+00   1.810000E+00   2.600000E-01   1.000000E+00
   1.508400E-02   0.000000E+00   2.500000E+00   3.000000E-01   1.000000E+00
   1.810200E-02   0.000000E+00   1.500000E+00   4.000000E-01   1.000000E+00
   1.896700E-02   0.000000E+00   6.000000E+00   6.000000E-01   1.000000E+00
   2.064400E-02   0.000000E+00   2.300000E+00   5.000000E-01   1.000000E+00
   2.290200E-02   0.000000E+00   8.900000E+00   9.000000E-01   1.000000E+00
   2.412900E-02   0.000000E+00   3.400000E+00   7.000000E-01   1.000000E+00
   2.710000E-02   0.000000E+00   3.190000E+01   2.400000E+00   1.000000E+00
   2.828000E-02   0.000000E+00   1.040000E+01   1.400000E+00   1.000000E+00
   2.841900E-02   0.000000E+00   6.700000E+00   1.200000E+00   1.000000E+00
# reference:
#   author: Y.Nakajima, M.Ohkubo, Y.Furuta, M.Mizumoto, M.Sugimoto, Y.Kawarasaki
#   title: Measurements of 122Sn neutron resonance parameters
#   journal: Jour: Annals of Nuclear Energy, Vol.17, Issue.2, p.95 (1990)
