# header:
#   title: W0(n,xn) emission spectrum at  1.410000E+01 MeV
#   source: EXFOR
#   user: Arjan Koning
#   date: 2024-01-18
#   format: YANDF-0.1
# exfor:
#   author: Matsuyama
#   year: 1993
#   subentry: 22352007
#   X4 reaction: 74-W-0(N,X)0-NN-1,,DE
#   X4 source: IAEA-NDS C5 file, database version 2023-08-08
#   X4 link: https://nds.iaea.org/EXFOR/22352007
# target:
#   Z: 74
#   A: 0
#   nuclide: W0
# reaction:
#   type: (n,xn)
#   ENDF_MF: 5
#   ENDF_MT: 201
#   E-incident [MeV]:  1.410000E+01
# datablock:
#   quantity: emission spectrum
#   columns: 5
#   entries: 74
##     E-out         dE-out           xs             dxs       Normalization
##     [MeV]          [MeV]       [mb/MeV.sr]    [mb/MeV.sr]        []
   8.000000E-01   1.000000E-01   2.179400E-03   1.115300E-04   1.000000E+00
   1.000000E+00   1.000000E-01   1.693900E-03   8.899999E-05   1.000000E+00
   1.200000E+00   1.000000E-01   1.562600E-03   8.201000E-05   1.000000E+00
   1.400000E+00   1.000000E-01   1.394200E-03   7.135300E-05   1.000000E+00
   1.600000E+00   1.000000E-01   1.115300E-03   5.587000E-05   1.000000E+00
   1.800000E+00   1.000000E-01   8.561300E-04   4.302200E-05   1.000000E+00
   2.000000E+00   1.000000E-01   7.049700E-04   3.564400E-05   1.000000E+00
   2.200000E+00   1.000000E-01   5.796100E-04   2.933300E-05   1.000000E+00
   2.400000E+00   1.000000E-01   5.051100E-04   2.574500E-05   1.000000E+00
   2.600000E+00   1.000000E-01   4.225300E-04   2.225400E-05   1.000000E+00
   2.800000E+00   1.000000E-01   3.283200E-04   1.840200E-05   1.000000E+00
   3.000000E+00   1.000000E-01   2.660100E-04   1.474800E-05   1.000000E+00
   3.200000E+00   1.000000E-01   2.137400E-04   1.146900E-05   1.000000E+00
   3.400000E+00   1.000000E-01   1.782300E-04   9.634299E-06   1.000000E+00
   3.600000E+00   1.000000E-01   1.436100E-04   8.298401E-06   1.000000E+00
   3.800000E+00   1.000000E-01   1.218000E-04   7.679400E-06   1.000000E+00
   4.000000E+00   1.000000E-01   1.082200E-04   6.342600E-06   1.000000E+00
   4.200000E+00   1.000000E-01   9.642700E-05   5.863100E-06   1.000000E+00
   4.400000E+00   1.000000E-01   8.419000E-05   5.160400E-06   1.000000E+00
   4.600000E+00   1.000000E-01   7.732800E-05   4.954400E-06   1.000000E+00
   4.800000E+00   1.000000E-01   7.197800E-05   4.263000E-06   1.000000E+00
   5.000000E+00   1.000000E-01   6.481400E-05   4.014000E-06   1.000000E+00
   5.200000E+00   1.000000E-01   5.639100E-05   3.379900E-06   1.000000E+00
   5.400000E+00   1.000000E-01   5.133400E-05   3.236800E-06   1.000000E+00
   5.600000E+00   1.000000E-01   5.131300E-05   3.341000E-06   1.000000E+00
   5.800000E+00   1.000000E-01   4.777100E-05   2.569700E-06   1.000000E+00
   6.000000E+00   1.000000E-01   4.310300E-05   2.706300E-06   1.000000E+00
   6.200000E+00   1.000000E-01   4.038600E-05   2.334200E-06   1.000000E+00
   6.400000E+00   1.000000E-01   4.408300E-05   3.026800E-06   1.000000E+00
   6.600000E+00   1.000000E-01   4.289700E-05   3.084500E-06   1.000000E+00
   6.800000E+00   1.000000E-01   4.236400E-05   2.960300E-06   1.000000E+00
   7.000000E+00   1.000000E-01   4.591200E-05   2.392200E-06   1.000000E+00
   7.200000E+00   1.000000E-01   4.310800E-05   2.864600E-06   1.000000E+00
   7.400000E+00   1.000000E-01   3.964400E-05   2.408800E-06   1.000000E+00
   7.600000E+00   1.000000E-01   4.157900E-05   2.817100E-06   1.000000E+00
   7.800000E+00   1.000000E-01   4.155300E-05   2.308300E-06   1.000000E+00
   8.000000E+00   1.000005E-01   3.768400E-05   2.546000E-06   1.000000E+00
   8.200000E+00   1.000000E-01   4.002400E-05   2.633100E-06   1.000000E+00
   8.400000E+00   1.000000E-01   4.104000E-05   2.444400E-06   1.000000E+00
   8.600000E+00   1.000000E-01   3.637800E-05   2.167100E-06   1.000000E+00
   8.800000E+00   1.000000E-01   3.705500E-05   2.609300E-06   1.000000E+00
   9.000000E+00   1.000000E-01   4.021000E-05   2.224600E-06   1.000000E+00
   9.200000E+00   1.000000E-01   3.826900E-05   2.154100E-06   1.000000E+00
   9.400000E+00   1.000000E-01   3.793100E-05   2.414600E-06   1.000000E+00
   9.600000E+00   1.000000E-01   3.967000E-05   2.489100E-06   1.000000E+00
   9.800000E+00   1.000000E-01   4.102200E-05   2.873800E-06   1.000000E+00
   1.000000E+01   1.000000E-01   3.710400E-05   2.928100E-06   1.000000E+00
   1.020000E+01   1.000000E-01   3.913300E-05   2.247200E-06   1.000000E+00
   1.040000E+01   1.000000E-01   4.110700E-05   2.667800E-06   1.000000E+00
   1.060000E+01   1.000000E-01   3.778900E-05   2.679100E-06   1.000000E+00
   1.080000E+01   1.000000E-01   3.353000E-05   2.056200E-06   1.000000E+00
   1.100000E+01   1.000000E-01   3.513800E-05   2.489400E-06   1.000000E+00
   1.120000E+01   1.000000E-01   3.320800E-05   2.031900E-06   1.000000E+00
   1.140000E+01   1.000000E-01   3.487400E-05   2.505000E-06   1.000000E+00
   1.160000E+01   1.000000E-01   3.135200E-05   2.070000E-06   1.000000E+00
   1.180000E+01   1.000000E-01   3.342400E-05   3.037800E-06   1.000000E+00
   1.200000E+01   1.000000E-01   3.269100E-05   4.153700E-06   1.000000E+00
   1.220000E+01   1.000000E-01   3.738500E-05   4.980000E-06   1.000000E+00
   1.240000E+01   1.000000E-01   4.152500E-05   5.593500E-06   1.000000E+00
   1.260000E+01   1.000000E-01   4.567200E-05   6.761300E-06   1.000000E+00
   1.280000E+01   1.000000E-01   6.151200E-05   9.121500E-06   1.000000E+00
   1.300000E+01   1.000000E-01   8.546800E-05   1.334400E-05   1.000000E+00
   1.320000E+01   1.000000E-01   1.342300E-04   2.414800E-05   1.000000E+00
   1.340000E+01   1.000000E-01   2.345700E-04   4.274600E-05   1.000000E+00
   1.360000E+01   1.000000E-01   3.789600E-04   6.980800E-05   1.000000E+00
   1.380000E+01   1.000000E-01   5.097400E-04   9.851100E-05   1.000000E+00
   1.400000E+01   1.000000E-01   5.663700E-04   1.113700E-04   1.000000E+00
   1.420000E+01   1.000000E-01   5.151300E-04   9.609900E-05   1.000000E+00
   1.440000E+01   1.000000E-01   3.685600E-04   6.664500E-05   1.000000E+00
   1.460000E+01   1.000000E-01   2.055200E-04   3.700900E-05   1.000000E+00
   1.480000E+01   1.000000E-01   9.385800E-05   1.867600E-05   1.000000E+00
   1.500000E+01   1.000000E-01   3.295200E-05   1.031200E-05   1.000000E+00
   1.530000E+01   2.000000E-01   7.893200E-06   4.892800E-06   1.000000E+00
   1.570000E+01   2.000000E-01   2.662800E-06   4.053400E-06   1.000000E+00
# reference:
#   author: S.Matsuyama,T.Okubo,M.Baba,T.Ito,T.Akiyama,N.Ito,  N.Hirakawa
#   title: Measurement of double-differential neutron emission  cross sections of Mo, Ta and W
#   journal: Conf: JAERI-M Reports, No.93-046, p.345 (1993)
