# header:
#   title: Th232(n,xn) emission spectrum at  2.030000E+00 MeV
#   source: EXFOR
#   user: Arjan Koning
#   date: 2024-01-18
#   format: YANDF-0.1
# exfor:
#   author: Baba
#   year: 1990
#   subentry: 22158003
#   X4 reaction: 90-TH-232(N,X)0-NN-1,,DE
#   X4 source: IAEA-NDS C5 file, database version 2023-08-08
#   X4 link: https://nds.iaea.org/EXFOR/22158003
# target:
#   Z: 90
#   A: 232
#   nuclide: Th232
# reaction:
#   type: (n,xn)
#   ENDF_MF: 5
#   ENDF_MT: 201
#   E-incident [MeV]:  2.030000E+00
# datablock:
#   quantity: emission spectrum
#   columns: 5
#   entries: 89
##     E-out         dE-out           xs             dxs       Normalization
##     [MeV]          [MeV]       [mb/MeV.sr]    [mb/MeV.sr]        []
   6.000000E-02   2.000000E-02   0.000000E+00   0.000000E+00   1.000000E+00
   1.000000E-01   2.000000E-02   0.000000E+00   0.000000E+00   1.000000E+00
   1.400000E-01   2.000000E-02   1.665400E-06   9.682500E-07   1.000000E+00
   1.800000E-01   2.000000E-02   1.761500E-04   3.321200E-05   1.000000E+00
   2.200000E-01   2.000000E-02   2.693800E-03   3.265800E-04   1.000000E+00
   2.600000E-01   2.000000E-02   3.314100E-03   2.633300E-04   1.000000E+00
   3.000000E-01   2.000000E-02   3.364700E-03   2.309000E-04   1.000000E+00
   3.400000E-01   2.000000E-02   3.378200E-03   2.157200E-04   1.000000E+00
   3.800000E-01   2.000000E-02   3.120900E-03   1.948000E-04   1.000000E+00
   4.200000E-01   2.000000E-02   3.184400E-03   1.902200E-04   1.000000E+00
   4.600000E-01   2.000000E-02   2.805300E-03   1.676400E-04   1.000000E+00
   5.000000E-01   1.999997E-02   2.333000E-03   1.441200E-04   1.000000E+00
   5.400000E-01   2.000000E-02   1.860100E-03   1.199100E-04   1.000000E+00
   5.800000E-01   2.000000E-02   1.236500E-03   9.080501E-05   1.000000E+00
   6.200000E-01   2.000000E-02   1.048000E-03   7.946500E-05   1.000000E+00
   6.600000E-01   2.000000E-02   7.559400E-04   6.555400E-05   1.000000E+00
   7.000000E-01   2.000000E-02   6.687900E-04   6.014600E-05   1.000000E+00
   7.400000E-01   2.000000E-02   8.538200E-04   6.496500E-05   1.000000E+00
   7.800000E-01   2.000000E-02   1.154800E-03   7.431100E-05   1.000000E+00
   8.200000E-01   2.000000E-02   1.353000E-03   8.165600E-05   1.000000E+00
   8.600000E-01   2.000000E-02   2.076900E-03   1.186900E-04   1.000000E+00
   9.000000E-01   2.000000E-02   2.991200E-03   1.669600E-04   1.000000E+00
   9.400000E-01   2.000000E-02   2.565100E-03   1.449000E-04   1.000000E+00
   9.800000E-01   2.000000E-02   1.087700E-03   6.694400E-05   1.000000E+00
   1.020000E+00   1.999994E-02   5.632300E-04   4.365000E-05   1.000000E+00
   1.060000E+00   2.000000E-02   6.987200E-04   5.308900E-05   1.000000E+00
   1.100000E+00   2.000000E-02   1.235800E-03   7.659700E-05   1.000000E+00
   1.140000E+00   2.000000E-02   1.563900E-03   9.053500E-05   1.000000E+00
   1.180000E+00   2.000000E-02   1.887900E-03   1.062600E-04   1.000000E+00
   1.220000E+00   2.000000E-02   2.495000E-03   1.380300E-04   1.000000E+00
   1.260000E+00   2.000000E-02   2.267300E-03   1.277000E-04   1.000000E+00
   1.300000E+00   2.000000E-02   1.188000E-03   7.368500E-05   1.000000E+00
   1.340000E+00   2.000000E-02   4.334400E-04   3.537100E-05   1.000000E+00
   1.380000E+00   2.000000E-02   3.189000E-04   3.136900E-05   1.000000E+00
   1.420000E+00   2.000000E-02   2.542900E-04   2.982700E-05   1.000000E+00
   1.460000E+00   2.000000E-02   2.932900E-04   3.000600E-05   1.000000E+00
   1.500000E+00   2.000000E-02   3.267200E-04   3.099700E-05   1.000000E+00
   1.540000E+00   2.000000E-02   2.264300E-04   2.870400E-05   1.000000E+00
   1.580000E+00   2.000000E-02   3.125100E-04   2.882400E-05   1.000000E+00
   1.620000E+00   2.000000E-02   3.085200E-04   2.523400E-05   1.000000E+00
   1.660000E+00   2.000000E-02   4.537100E-04   3.220000E-05   1.000000E+00
   1.700000E+00   2.000000E-02   5.966300E-04   4.029500E-05   1.000000E+00
   1.740000E+00   2.000000E-02   6.369200E-04   4.680500E-05   1.000000E+00
   1.780000E+00   2.000000E-02   8.839600E-04   6.216900E-05   1.000000E+00
   1.820000E+00   2.000000E-02   1.454900E-03   8.999900E-05   1.000000E+00
   1.860000E+00   2.000000E-02   1.973200E-03   1.141600E-04   1.000000E+00
   1.900000E+00   2.000000E-02   3.188800E-03   1.747600E-04   1.000000E+00
   1.940000E+00   2.000000E-02   7.731700E-03   4.070900E-04   1.000000E+00
   1.980000E+00   2.000000E-02   1.459300E-02   7.622100E-04   1.000000E+00
   2.020000E+00   2.000000E-02   1.637300E-02   8.581400E-04   1.000000E+00
   2.060000E+00   1.999987E-02   1.005000E-02   5.291600E-04   1.000000E+00
   2.100000E+00   2.000000E-02   3.483900E-03   1.862700E-04   1.000000E+00
   2.140000E+00   2.000000E-02   8.092000E-04   4.737800E-05   1.000000E+00
   2.180000E+00   2.000000E-02   3.119000E-04   2.423600E-05   1.000000E+00
   2.220000E+00   2.000000E-02   2.116000E-04   2.012200E-05   1.000000E+00
   2.260000E+00   2.000000E-02   1.600800E-04   1.812800E-05   1.000000E+00
   2.300000E+00   2.000000E-02   1.458100E-04   1.752100E-05   1.000000E+00
   2.340000E+00   2.000000E-02   1.267600E-04   1.669400E-05   1.000000E+00
   2.380000E+00   2.000000E-02   1.031300E-04   1.606300E-05   1.000000E+00
   2.420000E+00   2.000000E-02   7.143700E-05   1.499100E-05   1.000000E+00
   2.460000E+00   2.000000E-02   7.005000E-05   1.389400E-05   1.000000E+00
   2.500000E+00   2.000000E-02   8.006000E-05   1.542500E-05   1.000000E+00
   2.540000E+00   2.000000E-02   5.334800E-05   1.253700E-05   1.000000E+00
   2.580000E+00   2.000000E-02   8.316600E-05   1.475300E-05   1.000000E+00
   2.620000E+00   2.000000E-02   8.173300E-05   1.483700E-05   1.000000E+00
   2.660000E+00   2.000000E-02   5.856200E-05   1.353700E-05   1.000000E+00
   2.700000E+00   2.000000E-02   4.870000E-05   1.285500E-05   1.000000E+00
   2.740000E+00   2.000000E-02   6.813600E-05   1.350100E-05   1.000000E+00
   2.780000E+00   2.000000E-02   5.810900E-05   1.260600E-05   1.000000E+00
   2.820000E+00   2.000000E-02   4.903500E-05   1.297500E-05   1.000000E+00
   2.860000E+00   2.000000E-02   4.973900E-05   1.261500E-05   1.000000E+00
   2.900000E+00   2.000000E-02   6.030100E-05   1.363900E-05   1.000000E+00
   2.940000E+00   2.000000E-02   4.694400E-05   1.356500E-05   1.000000E+00
   2.980000E+00   2.000000E-02   4.385200E-05   1.339200E-05   1.000000E+00
   3.020000E+00   2.000000E-02   5.760700E-05   1.342100E-05   1.000000E+00
   3.060000E+00   2.000000E-02   3.984400E-05   1.245800E-05   1.000000E+00
   3.100000E+00   2.000000E-02   2.769400E-05   1.297300E-05   1.000000E+00
   3.140000E+00   2.000000E-02   2.688300E-05   1.256800E-05   1.000000E+00
   3.180000E+00   2.000000E-02   3.205900E-05   9.047100E-06   1.000000E+00
   3.220000E+00   2.000000E-02   3.362600E-05   1.148000E-05   1.000000E+00
   3.260000E+00   2.000000E-02   3.267000E-05   1.243700E-05   1.000000E+00
   3.300000E+00   2.000000E-02   3.365100E-05   1.140200E-05   1.000000E+00
   3.340000E+00   2.000000E-02   3.437500E-05   1.211400E-05   1.000000E+00
   3.380000E+00   2.000000E-02   3.186000E-05   9.824799E-06   1.000000E+00
   3.420000E+00   2.000000E-02   3.965700E-05   1.179100E-05   1.000000E+00
   3.460000E+00   2.000000E-02   4.030700E-05   1.183400E-05   1.000000E+00
   3.500000E+00   2.000000E-02   3.679900E-05   1.207500E-05   1.000000E+00
   3.540000E+00   2.000000E-02   2.948000E-06   3.038600E-06   1.000000E+00
   3.580000E+00   2.000000E-02   5.143100E-05   1.096000E-02   1.000000E+00
# reference:
#   author: M.Baba, H.Wakabayashi, N.Ito, K.Maeda, N.Hirakawa
#   title: Measurements of prompt fission neutron spectra and  double-differential neutron inelastic-scattering  cross sections for 238U and 232Th
#   journal: Jour: Jour. of Nuclear Science and Technology, Vol.27, p.601 (1990)
