# header:
#   title: Th232(n,xn) emission spectrum at  1.800000E+01 MeV
#   source: EXFOR
#   user: Arjan Koning
#   date: 2024-01-18
#   format: YANDF-0.1
# exfor:
#   author: Matsuyama
#   year: 1991
#   subentry: 22353003
#   X4 reaction: 90-TH-232(N,X)0-NN-1,,DE
#   X4 source: IAEA-NDS C5 file, database version 2023-08-08
#   X4 link: https://nds.iaea.org/EXFOR/22353003
# target:
#   Z: 90
#   A: 232
#   nuclide: Th232
# reaction:
#   type: (n,xn)
#   ENDF_MF: 5
#   ENDF_MT: 201
#   E-incident [MeV]:  1.800000E+01
# datablock:
#   quantity: emission spectrum
#   columns: 5
#   entries: 72
##     E-out         dE-out           xs             dxs       Normalization
##     [MeV]          [MeV]       [mb/MeV.sr]    [mb/MeV.sr]        []
   8.000000E-01   1.000000E-01   2.744600E-03   4.398000E-04   1.000000E+00
   1.000000E+00   1.000000E-01   3.177100E-03   5.031500E-04   1.000000E+00
   1.200000E+00   1.000000E-01   3.072200E-03   4.858800E-04   1.000000E+00
   1.400000E+00   1.000000E-01   2.608600E-03   4.128100E-04   1.000000E+00
   1.600000E+00   1.000000E-01   2.128500E-03   3.385400E-04   1.000000E+00
   1.800000E+00   1.000000E-01   1.658400E-03   2.639500E-04   1.000000E+00
   2.000000E+00   1.000000E-01   1.371300E-03   2.188500E-04   1.000000E+00
   2.200000E+00   1.000000E-01   1.112000E-03   1.775200E-04   1.000000E+00
   2.400000E+00   1.000000E-01   8.783600E-04   1.415200E-04   1.000000E+00
   2.600000E+00   1.000000E-01   7.193200E-04   1.156400E-04   1.000000E+00
   2.800000E+00   1.000000E-01   6.137700E-04   9.797300E-05   1.000000E+00
   3.000000E+00   1.000000E-01   5.257600E-04   8.562200E-05   1.000000E+00
   3.200000E+00   1.000000E-01   4.608500E-04   7.328100E-05   1.000000E+00
   3.400000E+00   1.000000E-01   3.808000E-04   6.170500E-05   1.000000E+00
   3.600000E+00   1.000000E-01   3.219000E-04   5.146300E-05   1.000000E+00
   3.800000E+00   1.000000E-01   2.900600E-04   4.599800E-05   1.000000E+00
   4.000000E+00   1.000000E-01   2.777500E-04   4.430000E-05   1.000000E+00
   4.200000E+00   1.000000E-01   2.354700E-04   4.038100E-05   1.000000E+00
   4.400000E+00   1.000000E-01   1.948200E-04   3.196500E-05   1.000000E+00
   4.600000E+00   1.000000E-01   2.037400E-04   3.236700E-05   1.000000E+00
   4.800000E+00   1.000000E-01   2.073000E-04   3.367000E-05   1.000000E+00
   5.000000E+00   1.000000E-01   1.628600E-04   2.877800E-05   1.000000E+00
   5.200000E+00   1.000000E-01   1.336400E-04   2.211400E-05   1.000000E+00
   5.400000E+00   1.000000E-01   1.501600E-04   2.412900E-05   1.000000E+00
   5.600000E+00   1.000000E-01   1.455400E-04   2.498000E-05   1.000000E+00
   5.800000E+00   1.000000E-01   1.334300E-04   2.432600E-05   1.000000E+00
   6.000000E+00   1.000000E-01   1.031400E-04   1.703000E-05   1.000000E+00
   6.200000E+00   1.000000E-01   9.785500E-05   1.631300E-05   1.000000E+00
   6.400000E+00   1.000000E-01   9.347800E-05   1.866500E-05   1.000000E+00
   6.600000E+00   1.000000E-01   9.774999E-05   1.787400E-05   1.000000E+00
   6.800000E+00   1.000000E-01   9.691900E-05   1.555800E-05   1.000000E+00
   7.000000E+00   1.000000E-01   7.525100E-05   1.310400E-05   1.000000E+00
   7.200000E+00   1.000000E-01   7.072800E-05   1.391400E-05   1.000000E+00
   7.400000E+00   1.000000E-01   8.511400E-05   1.711400E-05   1.000000E+00
   7.600000E+00   1.000000E-01   8.468100E-05   2.150800E-05   1.000000E+00
   7.800000E+00   1.000000E-01   7.132900E-05   1.514800E-05   1.000000E+00
   8.000000E+00   1.000005E-01   7.505000E-05   1.507100E-05   1.000000E+00
   8.200000E+00   1.000000E-01   7.418200E-05   1.450100E-05   1.000000E+00
   8.400000E+00   1.000000E-01   6.989900E-05   1.526300E-05   1.000000E+00
   8.600000E+00   1.000000E-01   6.960300E-05   1.470700E-05   1.000000E+00
   8.800000E+00   1.000000E-01   4.925600E-05   1.300200E-05   1.000000E+00
   9.000000E+00   1.000000E-01   5.368500E-05   9.274700E-06   1.000000E+00
   9.200000E+00   1.000000E-01   5.909200E-05   1.115100E-05   1.000000E+00
   9.400000E+00   1.000000E-01   6.533200E-05   1.184600E-05   1.000000E+00
   9.600000E+00   1.000000E-01   6.876900E-05   1.340500E-05   1.000000E+00
   9.800000E+00   1.000000E-01   5.144500E-05   1.443200E-05   1.000000E+00
   1.000000E+01   1.000000E-01   5.238900E-05   1.025200E-05   1.000000E+00
   1.030000E+01   2.000000E-01   4.996700E-05   1.094000E-05   1.000000E+00
   1.070000E+01   2.000000E-01   6.010000E-05   9.527500E-06   1.000000E+00
   1.110000E+01   2.000000E-01   3.178300E-05   5.267500E-06   1.000000E+00
   1.150000E+01   2.000000E-01   4.380600E-05   1.525700E-05   1.000000E+00
   1.190000E+01   2.000000E-01   4.695500E-05   1.049900E-05   1.000000E+00
   1.230000E+01   2.000000E-01   3.898300E-05   1.073900E-05   1.000000E+00
   1.270000E+01   2.000000E-01   4.056900E-05   7.303300E-06   1.000000E+00
   1.310000E+01   2.000000E-01   3.790400E-05   6.271500E-06   1.000000E+00
   1.350000E+01   2.000000E-01   4.028300E-05   7.765701E-06   1.000000E+00
   1.390000E+01   2.000000E-01   3.483500E-05   6.883100E-06   1.000000E+00
   1.430000E+01   2.000000E-01   3.810200E-05   1.184600E-05   1.000000E+00
   1.470000E+01   2.000000E-01   2.907900E-05   5.577000E-06   1.000000E+00
   1.510000E+01   2.000000E-01   3.528200E-05   9.115700E-06   1.000000E+00
   1.550000E+01   2.000000E-01   5.576700E-05   1.475300E-05   1.000000E+00
   1.590000E+01   2.000000E-01   9.159300E-05   1.451700E-05   1.000000E+00
   1.630000E+01   2.000000E-01   1.562900E-04   2.476200E-05   1.000000E+00
   1.670000E+01   2.000000E-01   3.249200E-04   6.350300E-05   1.000000E+00
   1.710000E+01   2.000000E-01   8.070300E-04   1.473700E-04   1.000000E+00
   1.750000E+01   2.000000E-01   9.696200E-04   1.723800E-04   1.000000E+00
   1.790000E+01   2.000000E-01   1.064200E-03   1.826700E-04   1.000000E+00
   1.830000E+01   2.000000E-01   8.157100E-04   1.391800E-04   1.000000E+00
   1.870000E+01   2.000000E-01   5.659900E-04   9.113000E-05   1.000000E+00
   1.910000E+01   2.000000E-01   1.542800E-04   2.442100E-05   1.000000E+00
   1.950000E+01   2.000000E-01   2.067900E-05   4.246100E-06   1.000000E+00
   1.990000E+01   2.000000E-01   5.698100E-06   1.351900E-06   1.000000E+00
# reference:
#   author: S.Matsuyama,M.Baba,T.Ito,K.Maeda,N.Ito,H.Nakamura, N.Hirakawa
#   title: Measurement of double-differential neutron emission spectra of 238-U and 232-Th at incident energy 18.0 MeV
#   journal: Conf: JAERI-M Reports, No.91-032, p.219 (1991)
