# header:
#   title: U238(n,res) resonance parameter
#   source: EXFOR
#   user: Arjan Koning
#   date: 2024-01-18
#   format: YANDF-0.1
# exfor:
#   author: Olsen
#   year: 1979
#   subentry: 107140031
#   X4 reaction: 92-U-238(N,0),,EN
#   X4 source: IAEA-NDS C5 file, database version 2023-08-08
#   X4 link: https://nds.iaea.org/EXFOR/107140031
# target:
#   Z: 92
#   A: 238
#   nuclide: U238
# reaction:
#   type: (n,res)
#   ENDF_MF: 402
#   ENDF_MT: 151
# datablock:
#   quantity: resonance parameter
#   columns: 5
#   entries: 60
##       E             dE             par           dpar       Normalization
##     [eV]           [eV]            []             []             []
   4.404000E-06   3.157500E-09   4.404000E+00   3.157500E-03   1.000000E+00
   1.023600E-05   3.039500E-09   1.023600E+01   3.039500E-03   1.000000E+00
   1.130900E-05   6.511100E-09   1.130900E+01   6.511100E-03   1.000000E+00
   1.952300E-05   5.920900E-09   1.952300E+01   5.920900E-03   1.000000E+00
   4.516600E-05   3.835360E-08   4.516600E+01   3.835360E-02   1.000000E+00
   4.962600E-05   7.285009E-08   4.962600E+01   7.285009E-02   1.000000E+00
   6.350500E-05   1.859151E-08   6.350500E+01   1.859151E-02   1.000000E+00
   8.368400E-05   3.285043E-08   8.368400E+01   3.285043E-02   1.000000E+00
   9.309700E-05   5.416043E-08   9.309700E+01   5.416043E-02   1.000000E+00
   1.112100E-04   1.225495E-07   1.112100E+02   1.225495E-01   1.000000E+00
   1.249800E-04   7.537241E-08   1.249800E+02   7.537241E-02   1.000000E+00
   1.332900E-04   1.529324E-07   1.332900E+02   1.529324E-01   1.000000E+00
   1.524200E-04   4.540476E-08   1.524200E+02   4.540476E-02   1.000000E+00
   1.589500E-04   9.676392E-08   1.589500E+02   9.676392E-02   1.000000E+00
   1.731900E-04   5.567530E-08   1.731900E+02   5.567530E-02   1.000000E+00
   2.007100E-04   1.005695E-07   2.007100E+02   1.005695E-01   1.000000E+00
   2.031100E-04   1.008101E-07   2.031100E+02   1.008101E-01   1.000000E+00
   2.148500E-04   1.292595E-07   2.148500E+02   1.292595E-01   1.000000E+00
   2.183200E-04   1.961713E-07   2.183200E+02   1.961713E-01   1.000000E+00
   2.427100E-04   6.741963E-08   2.427100E+02   6.741963E-02   1.000000E+00
   2.538900E-04   8.260149E-08   2.538900E+02   8.260149E-02   1.000000E+00
   2.572400E-04   2.760591E-07   2.572400E+02   2.760591E-01   1.000000E+00
   2.639300E-04   6.620386E-08   2.639300E+02   6.620386E-02   1.000000E+00
   2.751100E-04   1.009172E-07   2.751100E+02   1.009172E-01   1.000000E+00
   2.824300E-04   9.427796E-08   2.824300E+02   9.427796E-02   1.000000E+00
   3.228600E-04   2.315425E-07   3.228600E+02   2.315425E-01   1.000000E+00
   3.319700E-04   1.947054E-07   3.319700E+02   1.947054E-01   1.000000E+00
   3.372500E-04   1.099403E-07   3.372500E+02   1.099403E-01   1.000000E+00
   3.518600E-04   1.352415E-07   3.518600E+02   1.352415E-01   1.000000E+00
   4.082100E-04   1.842058E-07   4.082100E+02   1.842058E-01   1.000000E+00
   4.397400E-04   1.267618E-07   4.397400E+02   1.267618E-01   1.000000E+00
   4.483600E-04   3.258087E-07   4.483600E+02   3.258087E-01   1.000000E+00
   4.540500E-04   1.131727E-07   4.540500E+02   1.131727E-01   1.000000E+00
   4.671500E-04   3.748486E-07   4.671500E+02   3.748486E-01   1.000000E+00
   4.852800E-04   1.933257E-07   4.852800E+02   1.933257E-01   1.000000E+00
   4.888800E-04   1.133586E-07   4.888800E+02   1.133586E-01   1.000000E+00
   4.988700E-04   2.377889E-07   4.988700E+02   2.377889E-01   1.000000E+00
   5.233300E-04   1.539276E-07   5.233300E+02   1.539276E-01   1.000000E+00
   5.424600E-04   2.512233E-07   5.424600E+02   2.512233E-01   1.000000E+00
   5.509900E-04   4.473025E-07   5.509900E+02   4.473025E-01   1.000000E+00
   5.562600E-04   1.306570E-07   5.562600E+02   1.306570E-01   1.000000E+00
   5.844600E-04   3.456583E-07   5.844600E+02   3.456583E-01   1.000000E+00
   6.067200E-04   2.334640E-07   6.067200E+02   2.334640E-01   1.000000E+00
   6.157500E-04   3.030799E-07   6.157500E+02   3.030799E-01   1.000000E+00
   6.242000E-04   1.561451E-07   6.242000E+02   1.561451E-01   1.000000E+00
   6.332900E-04   4.717550E-07   6.332900E+02   4.717550E-01   1.000000E+00
   6.684000E-04   3.622678E-07   6.684000E+02   3.622678E-01   1.000000E+00
   6.777500E-04   1.815689E-07   6.777500E+02   1.815689E-01   1.000000E+00
   6.980700E-04   2.616583E-07   6.980700E+02   2.616583E-01   1.000000E+00
   7.106000E-04   9.139188E-07   7.106000E+02   9.139188E-01   1.000000E+00
   7.137900E-04   4.213962E-07   7.137900E+02   4.213962E-01   1.000000E+00
   7.324700E-04   1.712472E-07   7.324700E+02   1.712472E-01   1.000000E+00
   7.431400E-04   2.677926E-07   7.431400E+02   2.677926E-01   1.000000E+00
   7.562400E-04   2.195335E-07   7.562400E+02   2.195335E-01   1.000000E+00
   7.793100E-04   1.812904E-07   7.793100E+02   1.812904E-01   1.000000E+00
   7.858200E-04   4.096043E-07   7.858200E+02   4.096043E-01   1.000000E+00
   7.873400E-04   3.139987E-07   7.873400E+02   3.139987E-01   1.000000E+00
   8.081600E-04   2.770489E-07   8.081600E+02   2.770489E-01   1.000000E+00
   8.287600E-04   4.682330E-07   8.287600E+02   4.682330E-01   1.000000E+00
   8.466500E-04   2.189539E-07   8.466500E+02   2.189539E-01   1.000000E+00
# reference:
#   author: D.K.Olsen,G.De Saussure,R.B.Perez,F.C.Difilippo, R.W.Ingle,H.Weaver
#   title: Measurement and Resonance Analysis of Neutron Transmission Through Uranium-238
#   journal: Jour: Nuclear Science and Engineering, Vol.69, p.202 (1979)
