# header:
#   title: In115(n,res) resonance parameter
#   source: EXFOR
#   user: Arjan Koning
#   date: 2024-01-18
#   format: YANDF-0.1
# exfor:
#   author: Frankle
#   year: 1993
#   subentry: 135910052
#   X4 reaction: 49-IN-115(N,EL),,WID,,G
#   X4 source: IAEA-NDS C5 file, database version 2023-08-08
#   X4 link: https://nds.iaea.org/EXFOR/135910052
# target:
#   Z: 49
#   A: 115
#   nuclide: In115
# reaction:
#   type: (n,res)
#   ENDF_MF: 402
#   ENDF_MT: 151
# datablock:
#   quantity: resonance parameter
#   columns: 5
#   entries: 39
##       E             dE             par           dpar       Normalization
##     [eV]           [eV]            []             []             []
   3.956000E-05   7.000000E-08   2.060000E-03   2.000000E-05   1.000000E+00
   4.637000E-05   8.000000E-08   1.290000E-04   4.000000E-06   1.000000E+00
   4.814000E-05   8.000000E-08   2.300000E-04   1.000000E-05   1.000000E+00
   6.293000E-05   1.100000E-07   3.400000E-04   2.000000E-05   1.000000E+00
   6.947000E-05   1.200000E-07   2.000000E-04   1.000000E-05   1.000000E+00
   8.079000E-05   1.400000E-07   8.500000E-04   3.000000E-05   1.000000E+00
   8.321000E-05   1.500000E-07   3.070000E-03   6.000000E-05   1.000000E+00
   9.430001E-05   1.700000E-07   1.090000E-03   4.000000E-05   1.000000E+00
   1.258000E-04   2.000000E-07   1.720000E-03   6.000000E-05   1.000000E+00
   1.328000E-04   2.000000E-07   1.330000E-03   1.400000E-04   1.000000E+00
   1.501000E-04   3.000000E-07   2.000000E-03   1.000000E-04   1.000000E+00
   1.644000E-04   3.000000E-07   7.360000E-03   1.400000E-04   1.000000E+00
   1.680000E-04   3.000000E-07   1.300000E-03   1.000000E-04   1.000000E+00
   1.777000E-04   3.000000E-07   1.930000E-03   7.000000E-05   1.000000E+00
   1.864000E-04   3.000000E-07   9.600000E-03   2.000000E-04   1.000000E+00
   2.055000E-04   4.000000E-07   9.700000E-03   3.000000E-04   1.000000E+00
   2.119000E-04   4.000000E-07   2.900000E-04   2.000000E-05   1.000000E+00
   2.235000E-04   4.000000E-07   1.300000E-02   2.000000E-03   1.000000E+00
   2.266000E-04   4.000000E-07   2.300000E-03   4.000000E-04   1.000000E+00
   2.495000E-04   4.000000E-07   1.720000E-02   5.000000E-04   1.000000E+00
   2.666000E-04   5.000000E-07   2.900000E-03   4.000000E-04   1.000000E+00
   2.884000E-04   5.000000E-07   1.200000E-02   1.000000E-03   1.000000E+00
   2.937000E-04   5.000000E-07   1.900000E-02   5.000000E-03   1.000000E+00
   3.190000E-04   6.000000E-07   7.700000E-03   4.000000E-04   1.000000E+00
   3.395000E-04   6.000000E-07   2.100000E-03   6.000000E-04   1.000000E+00
   3.532000E-04   6.000000E-07   1.040000E-02   8.000000E-04   1.000000E+00
   3.618000E-04   6.000000E-07   7.200000E-03   5.000000E-04   1.000000E+00
   3.706000E-04   7.000000E-07   3.800000E-03   2.000000E-04   1.000000E+00
   3.828000E-04   7.000000E-07   6.000000E-03   3.000000E-03   1.000000E+00
   4.015000E-04   7.000000E-07   1.500000E-02   1.000000E-03   1.000000E+00
   4.112000E-04   7.000000E-07   1.200000E-02   1.000000E-03   1.000000E+00
   4.215000E-04   7.000000E-07   5.000000E-03   5.000000E-04   1.000000E+00
   4.372000E-04   8.000000E-07   5.200000E-04   4.000000E-05   1.000000E+00
   4.484000E-04   8.000000E-07   8.300000E-03   7.000000E-04   1.000000E+00
   4.534000E-04   8.000000E-07   6.000000E-03   9.000000E-04   1.000000E+00
   4.566000E-04   8.000000E-07   4.600000E-03   6.000000E-04   1.000000E+00
   4.698000E-04   8.000000E-07   1.900000E-03   3.000000E-04   1.000000E+00
   4.775000E-04   8.000000E-07   1.500000E-03   1.000000E-04   1.000000E+00
   4.982000E-04   9.000000E-07   1.500000E-03   1.000000E-04   1.000000E+00
# reference:
#   author: C.M.FRANKLE,J.D.BOWMAN,B.E.CRAWFORD,P.P.J.DELHEIJ, C.R.GOULD,D.G.HAASE,J.N.KNUDSON,G.E.MITCHELL, S.S.PATTERSON,S.I.PENTTILA,YU.P.POPOV,N.R.ROBERSON, S.J.SEESTROM,E.I.SHARAPOV,Y.F.YEN,S.H.YOO,V.W.YUAN, X.ZHU
#   title: Neutron resonance spectroscopy of 113In and 115In
#   journal: Jour: Physical Review, Part C, Nuclear Physics, Vol.48, p.1601 (1993)
